FP2-F4 ,F4 -C4 ,C4 -P4 ,P4 -O2 ,FP2-F8 ,F8 -T4 ,T4 -T6 ,T6 -O2 ,FP1-F3 ,F3 -C3 ,C3 -P3 ,P3 -O1 ,FP1-F7 ,F7 -T3 ,T3 -T5 ,T5 -O1 ,T6 -A1 ,O1 -A1 ,O2 -A1 
45,-704,-371,-128,63,-384,-484,177,265,211,191,-502,103,370,378,148,-192,233,525
30,-786,-418,94,37,-380,-526,403,320,186,194,-528,195,325,402,156,-240,231,315
-33,-953,-506,444,-12,-407,-621,757,415,154,213,-586,338,273,473,154,-334,279,1
-118,-1094,-574,911,-86,-404,-703,1190,510,97,216,-618,508,179,526,126,-441,329,-454
-170,-1090,-566,1486,-189,-304,-707,1655,568,-8,168,-544,677,-3,500,72,-522,321,-1089
-173,-961,-498,2032,-294,-139,-643,2050,580,-132,83,-389,806,-222,408,13,-563,257,-1743
-145,-834,-431,2375,-364,-6,-580,2283,573,-217,14,-256,870,-377,324,-22,-578,192,-2178
-101,-790,-408,2468,-384,41,-565,2346,568,-239,-8,-209,876,-420,295,-20,-582,163,-2307
-59,-807,-421,2400,-372,27,-582,2296,564,-221,5,-224,850,-391,305,2,-581,162,-2232
-39,-819,-434,2288,-354,5,-587,2200,551,-199,19,-246,816,-356,313,17,-573,165,-2107
-49,-792,-427,2193,-342,1,-563,2101,530,-194,22,-247,785,-345,300,10,-556,163,-2017
-71,-747,-406,2122,-335,9,-529,2017,511,-200,17,-235,759,-351,280,-5,-536,161,-1960
-78,-712,-391,2063,-330,14,-509,1956,502,-204,15,-227,741,-354,268,-8,-518,161,-1908
-66,-697,-390,2005,-324,11,-510,1909,503,-200,18,-227,728,-345,268,5,-504,162,-1848
-52,-693,-393,1939,-314,5,-516,1863,506,-192,22,-230,715,-326,271,22,-491,160,-1779
-50,-684,-387,1867,-300,1,-513,1807,500,-184,20,-227,695,-309,268,26,-478,155,-1713
-58,-661,-370,1804,-290,4,-497,1746,482,-182,12,-216,672,-300,257,11,-465,147,-1664
-60,-629,-352,1757,-286,14,-477,1692,463,-182,1,-201,653,-301,244,-7,-452,140,-1632
-54,-606,-340,1714,-283,20,-463,1644,447,-179,-6,-189,640,-302,239,-15,-445,132,-1597
-50,-602,-335,1658,-277,13,-456,1591,434,-168,-4,-187,629,-295,245,-11,-441,125,-1539
-56,-606,-330,1591,-269,1,-448,1532,422,-155,3,-189,615,-281,249,-2,-437,122,-1467
-66,-597,-317,1531,-265,-1,-431,1474,405,-146,5,-184,599,-275,241,4,-429,115,-1410
-71,-568,-296,1490,-267,7,-408,1428,385,-144,0,-168,582,-279,224,3,-416,103,-1383
-71,-541,-278,1457,-270,14,-391,1391,371,-145,-6,-154,566,-282,212,0,-403,92,-1362
-73,-536,-276,1416,-271,7,-391,1358,366,-142,-5,-157,552,-272,211,-1,-390,94,-1321
-83,-546,-284,1365,-271,-9,-400,1324,364,-134,1,-171,538,-255,220,-2,-381,103,-1264
-99,-544,-285,1317,-272,-24,-400,1286,358,-130,5,-178,522,-244,223,-8,-372,107,-1217
-118,-519,-269,1278,-279,-27,-384,1245,344,-133,1,-168,503,-244,214,-17,-361,100,-1192
-135,-490,-250,1243,-290,-26,-363,1203,326,-136,-5,-152,483,-248,198,-21,-351,87,-1173
-151,-483,-243,1201,-297,-36,-352,1160,310,-130,-4,-148,466,-239,189,-13,-349,77,-1136
-164,-497,-248,1152,-298,-56,-350,1116,303,-118,0,-154,451,-220,186,0,-353,74,-1082
-173,-503,-252,1110,-298,-70,-344,1075,301,-111,-1,-154,440,-204,178,12,-354,70,-1036
-179,-485,-245,1083,-299,-70,-329,1037,296,-113,-12,-140,430,-202,156,15,-347,63,-1013
-182,-457,-232,1059,-297,-65,-312,1000,290,-120,-25,-125,420,-204,133,10,-337,57,-999
-186,-446,-225,1026,-292,-67,-306,967,286,-124,-26,-125,407,-198,126,3,-329,59,-969
-191,-453,-228,981,-287,-79,-312,934,280,-122,-16,-139,391,-183,137,-3,-326,67,-922
-198,-457,-227,931,-284,-90,-316,898,267,-119,-7,-149,371,-173,149,-11,-323,72,-874
-207,-440,-214,886,-287,-92,-307,857,242,-123,-6,-141,346,-175,149,-20,-315,67,-841
-216,-413,-197,849,-290,-90,-291,818,213,-130,-8,-122,320,-182,141,-26,-307,55,-823
-223,-402,-189,816,-290,-96,-281,786,191,-132,-7,-110,302,-183,137,-26,-305,45,-803
-224,-409,-192,784,-283,-109,-282,762,182,-129,1,-113,291,-174,141,-20,-309,42,-775
-216,-417,-195,757,-271,-119,-283,743,181,-127,8,-119,284,-163,143,-16,-311,43,-748
-202,-407,-190,743,-258,-118,-271,722,183,-131,8,-115,278,-162,139,-19,-307,40,-735
-187,-386,-181,734,-245,-109,-254,699,187,-137,1,-105,275,-166,132,-28,-299,34,-730
-170,-374,-176,718,-229,-102,-243,675,196,-135,-5,-101,275,-162,130,-33,-289,32,-710
-153,-378,-178,690,-211,-103,-241,650,208,-123,-7,-106,276,-148,136,-30,-280,37,-669
-134,-381,-179,660,-193,-103,-240,626,219,-108,-9,-107,277,-133,137,-19,-272,41,-628
-116,-366,-167,636,-177,-94,-232,605,225,-99,-15,-98,279,-128,128,-7,-262,40,-605
-98,-337,-149,615,-160,-81,-214,585,228,-98,-20,-86,282,-132,113,-1,-251,39,-597
-81,-313,-135,592,-142,-73,-198,568,233,-99,-20,-79,287,-136,106,4,-242,41,-585
-63,-305,-131,564,-123,-72,-193,553,242,-96,-14,-80,293,-131,110,9,-237,46,-561
-41,-301,-131,532,-105,-70,-195,536,252,-93,-6,-84,298,-124,118,12,-232,51,-531
-18,-291,-128,506,-89,-61,-193,515,258,-94,1,-84,301,-121,123,8,-222,52,-506
3,-276,-122,488,-75,-48,-186,493,258,-97,7,-80,303,-122,119,-1,-207,53,-487
17,-265,-119,473,-64,-37,-183,472,255,-97,14,-82,302,-117,114,-9,-193,57,-464
27,-267,-123,456,-55,-33,-187,455,253,-91,24,-90,300,-103,113,-12,-182,64,-435
32,-272,-127,441,-49,-35,-189,443,249,-83,34,-99,294,-88,115,-12,-175,68,-409
34,-268,-124,432,-46,-40,-181,432,238,-79,35,-96,282,-80,113,-14,-168,66,-396
31,-255,-115,424,-45,-43,-165,418,221,-80,28,-81,265,-76,106,-17,-163,59,-391
26,-245,-106,412,-45,-48,-148,401,204,-81,19,-67,246,-72,96,-18,-160,52,-383
24,-247,-104,396,-40,-60,-136,382,191,-80,13,-62,230,-63,90,-17,-161,51,-365
26,-253,-104,378,-32,-73,-127,362,181,-77,12,-65,217,-54,87,-16,-163,56,-342
30,-249,-103,361,-26,-80,-117,342,172,-74,10,-66,209,-54,82,-15,-161,59,-322
33,-235,-100,346,-21,-80,-105,322,162,-69,7,-65,206,-63,77,-17,-156,60,-309
37,-222,-95,329,-14,-82,-95,306,153,-63,6,-67,206,-75,79,-21,-149,61,-296
43,-219,-94,308,-5,-89,-94,294,148,-57,11,-71,206,-85,91,-24,-141,61,-279
50,-221,-93,287,4,-96,-97,284,145,-53,16,-75,204,-91,105,-25,-135,59,-259
59,-222,-89,269,10,-97,-97,271,140,-52,18,-72,198,-93,113,-25,-131,55,-243
65,-216,-82,254,14,-92,-92,255,133,-52,16,-64,187,-92,112,-25,-129,46,-234
66,-208,-77,235,13,-85,-85,231,124,-52,14,-56,173,-84,107,-24,-131,35,-222
65,-205,-76,200,10,-78,-81,192,117,-47,15,-52,161,-72,105,-23,-136,26,-190
63,-204,-81,145,5,-72,-80,133,111,-43,15,-50,152,-60,104,-21,-140,21,-131
61,-198,-85,72,3,-68,-80,57,106,-44,14,-46,145,-56,102,-21,-139,19,-56
63,-191,-86,-13,5,-64,-82,-30,101,-51,12,-39,141,-60,96,-22,-130,19,32
65,-188,-84,-102,8,-61,-87,-117,98,-58,6,-33,140,-67,87,-22,-117,26,126
66,-190,-84,-176,13,-63,-93,-188,97,-62,-2,-31,141,-74,78,-19,-102,39,209
67,-191,-86,-222,17,-67,-99,-229,98,-60,-7,-31,142,-76,70,-12,-87,51,266
67,-185,-88,-240,18,-67,-99,-244,99,-54,-11,-31,142,-75,62,-4,-77,56,290
65,-174,-86,-243,14,-63,-91,-248,97,-46,-13,-28,140,-72,56,2,-73,54,293
60,-163,-80,-243,7,-56,-81,-250,92,-39,-12,-25,133,-67,57,3,-74,44,286
56,-157,-73,-244,1,-50,-74,-250,85,-33,-7,-21,123,-58,65,3,-81,30,278
53,-156,-67,-246,-5,-44,-70,-248,76,-27,-2,-18,111,-49,77,0,-89,16,269
52,-155,-59,-248,-10,-39,-67,-247,67,-23,4,-15,99,-42,89,-5,-95,1,261
52,-150,-52,-247,-9,-35,-62,-246,60,-20,8,-12,90,-36,97,-11,-98,-10,252
51,-144,-49,-240,-5,-35,-58,-243,57,-20,12,-13,84,-29,99,-19,-95,-15,246
50,-141,-51,-232,2,-39,-57,-239,58,-19,17,-18,82,-22,98,-24,-90,-13,245
51,-143,-54,-228,11,-46,-57,-240,59,-20,23,-23,82,-16,95,-25,-84,-8,252
55,-146,-55,-230,20,-55,-54,-245,59,-24,25,-24,82,-14,89,-25,-78,1,263
60,-148,-55,-233,27,-61,-50,-252,55,-30,23,-20,81,-15,79,-24,-72,11,273
65,-148,-55,-237,30,-65,-44,-259,51,-38,18,-12,80,-21,70,-21,-68,19,279
68,-148,-53,-243,30,-65,-38,-266,47,-45,13,-5,77,-24,64,-21,-69,26,282
70,-149,-51,-252,25,-61,-34,-275,44,-49,11,-5,72,-23,60,-23,-74,30,286
69,-147,-50,-260,19,-54,-32,-284,40,-50,12,-10,64,-18,56,-25,-80,31,289
67,-140,-48,-267,17,-48,-31,-291,36,-48,16,-15,55,-13,56,-26,-83,28,289
63,-131,-44,-272,17,-42,-31,-295,33,-42,23,-22,46,-8,59,-28,-84,24,288
61,-124,-42,-275,20,-40,-30,-297,31,-37,31,-31,40,-5,63,-28,-85,20,287
59,-119,-40,-275,24,-41,-30,-297,33,-34,38,-38,38,-4,65,-24,-86,17,286
56,-118,-39,-274,26,-43,-31,-294,37,-32,38,-39,38,-5,64,-19,-84,16,284
53,-120,-37,-270,25,-43,-34,-292,39,-32,32,-36,38,-6,59,-15,-80,18,284
49,-122,-37,-266,22,-42,-38,-290,36,-31,24,-30,35,-7,51,-11,-76,18,283
45,-122,-39,-263,23,-43,-43,-288,30,-26,15,-23,29,-3,43,-6,-73,17,282
43,-120,-44,-261,27,-45,-49,-286,26,-18,6,-16,24,6,37,-3,-70,16,282
44,-114,-49,-261,33,-45,-52,-287,25,-13,-1,-11,21,13,35,-4,-69,16,283
46,-104,-52,-265,37,-42,-51,-292,29,-13,-4,-10,20,20,32,-6,-72,14,283
49,-95,-52,-273,39,-36,-48,-299,33,-17,-5,-11,19,26,28,-11,-77,12,284
51,-89,-47,-286,38,-29,-47,-308,36,-22,-3,-14,17,30,26,-16,-79,14,288
51,-88,-42,-298,35,-22,-48,-316,35,-26,1,-19,14,30,25,-20,-80,17,294
49,-88,-37,-308,31,-20,-51,-319,29,-29,8,-25,11,28,26,-23,-81,16,296
44,-90,-31,-314,26,-21,-53,-318,23,-29,17,-32,10,22,31,-27,-79,14,295
39,-91,-28,-315,22,-25,-53,-315,20,-27,25,-40,12,15,39,-34,-76,14,293
34,-90,-29,-311,19,-33,-49,-311,24,-25,30,-49,17,12,45,-41,-71,15,291
31,-90,-32,-307,16,-39,-46,-307,33,-22,32,-56,23,15,49,-49,-64,19,295
30,-90,-35,-305,16,-44,-43,-307,44,-18,26,-59,28,19,52,-55,-56,25,301
31,-89,-34,-306,18,-49,-38,-308,50,-13,16,-55,28,23,53,-57,-50,30,308
33,-88,-34,-308,21,-52,-33,-312,51,-8,6,-46,25,25,52,-52,-47,31,313
37,-87,-35,-312,24,-54,-30,-317,49,-6,0,-36,19,26,50,-40,-46,26,318
40,-87,-36,-318,25,-55,-27,-324,44,-5,-1,-28,10,26,48,-28,-49,18,321
41,-85,-35,-325,25,-53,-26,-330,36,-4,2,-26,0,26,45,-18,-51,11,324
41,-82,-33,-332,24,-49,-27,-335,28,-2,5,-25,-8,27,42,-11,-47,9,332
40,-78,-30,-338,23,-42,-31,-337,25,-1,7,-23,-11,30,39,-8,-38,11,342
35,-75,-25,-342,19,-35,-35,-338,23,0,7,-20,-11,33,38,-8,-27,17,352
28,-72,-19,-343,14,-27,-39,-337,22,0,6,-15,-8,34,37,-10,-17,24,360
22,-70,-17,-341,10,-21,-41,-336,21,-2,7,-10,-5,35,37,-11,-9,31,367
17,-68,-18,-336,7,-17,-41,-337,20,-4,9,-8,-4,37,37,-15,-6,37,370
14,-65,-22,-332,5,-15,-39,-341,17,-5,11,-10,-7,39,39,-20,-7,41,371
16,-63,-28,-330,7,-15,-37,-345,11,-2,11,-13,-12,42,39,-25,-10,45,371
20,-62,-34,-329,11,-16,-37,-347,6,3,8,-18,-18,45,39,-30,-13,46,370
24,-61,-40,-329,14,-19,-37,-349,4,8,5,-21,-21,45,40,-34,-15,47,369
27,-62,-42,-330,17,-24,-36,-350,5,10,1,-23,-21,44,40,-35,-16,46,368
28,-63,-42,-330,21,-29,-33,-351,7,12,0,-23,-18,43,35,-31,-16,43,368
28,-59,-41,-330,24,-32,-31,-350,9,13,2,-21,-14,41,32,-24,-15,38,367
28,-53,-39,-331,28,-34,-28,-349,9,14,6,-17,-10,38,32,-15,-12,31,368
29,-46,-37,-334,31,-32,-25,-349,6,17,10,-9,-7,34,33,-5,-10,23,370
31,-37,-37,-338,33,-27,-23,-351,1,20,14,-1,-4,29,35,5,-8,14,373
34,-31,-38,-342,33,-21,-24,-353,-3,20,16,5,-3,24,37,9,-5,10,378
40,-32,-40,-346,35,-18,-26,-357,-6,16,14,6,-3,19,37,5,-1,14,384
47,-40,-40,-347,38,-18,-29,-360,-8,11,7,3,-4,14,35,-3,3,25,391
53,-50,-42,-348,40,-20,-31,-363,-8,4,-1,0,-8,12,31,-12,7,35,398
56,-57,-44,-346,40,-24,-31,-365,-9,-2,-6,-1,-15,12,27,-17,11,43,402
54,-59,-48,-344,37,-27,-28,-367,-14,-6,-10,2,-22,14,27,-21,13,46,406
49,-56,-52,-342,29,-27,-24,-368,-20,-7,-13,8,-28,15,29,-23,13,46,407
41,-48,-56,-339,19,-24,-19,-368,-24,-4,-16,13,-31,17,30,-22,12,44,404
34,-39,-59,-337,11,-20,-17,-366,-25,2,-17,14,-30,19,30,-21,13,43,402
29,-32,-62,-334,7,-17,-17,-362,-24,8,-21,12,-27,20,27,-21,16,45,402
27,-29,-63,-332,8,-18,-18,-359,-21,14,-25,7,-26,22,23,-22,22,49,403
25,-28,-62,-331,10,-21,-17,-359,-22,17,-26,0,-28,23,19,-22,26,51,407
23,-30,-61,-333,12,-26,-14,-364,-26,17,-21,-5,-31,21,20,-22,28,50,414
18,-33,-59,-336,10,-32,-9,-370,-33,13,-12,-7,-35,15,25,-22,27,48,418
13,-34,-56,-337,6,-35,-3,-374,-39,7,-3,-7,-37,6,32,-21,22,43,416
8,-35,-51,-340,-1,-34,2,-375,-43,1,5,-4,-38,-1,38,-19,14,37,410
7,-34,-45,-342,-8,-29,6,-375,-42,-4,10,-1,-37,-8,43,-15,8,32,403
7,-32,-41,-342,-13,-23,8,-373,-36,-7,10,2,-34,-11,45,-11,3,29,394
9,-29,-37,-340,-16,-18,11,-367,-27,-7,6,4,-29,-10,43,-9,-1,24,384
12,-26,-34,-338,-15,-16,14,-360,-18,-3,1,3,-22,-9,40,-8,-2,20,376
15,-25,-31,-336,-14,-16,16,-355,-11,2,-5,0,-15,-9,37,-8,-2,16,371
13,-24,-30,-331,-12,-20,18,-350,-8,9,-9,-2,-10,-7,32,-7,-2,12,365
8,-27,-29,-325,-14,-26,18,-344,-9,14,-13,-2,-6,-5,25,-7,-1,11,359
1,-34,-28,-322,-18,-33,17,-342,-12,14,-16,2,-4,-3,18,-5,1,14,359
-7,-40,-27,-321,-23,-37,17,-345,-17,12,-19,8,-5,-3,13,-3,3,20,364
-15,-43,-28,-321,-28,-37,17,-351,-20,7,-20,14,-9,-3,11,-2,3,26,370
-21,-42,-29,-323,-32,-36,16,-357,-19,0,-18,16,-12,-2,11,-3,2,29,374
-24,-38,-30,-324,-30,-34,14,-360,-16,-8,-14,17,-17,-3,14,0,2,27,377
-22,-34,-31,-324,-25,-31,10,-359,-13,-13,-8,16,-24,-1,16,5,2,20,375
-17,-32,-33,-322,-21,-29,8,-356,-8,-18,-2,12,-32,5,14,12,0,10,371
-11,-33,-32,-321,-17,-29,7,-352,-3,-20,2,9,-37,10,11,18,-3,-2,363
-6,-35,-29,-320,-14,-31,9,-348,0,-19,3,5,-37,12,8,19,-5,-9,356
-4,-37,-27,-320,-15,-32,13,-347,2,-14,2,0,-31,13,6,15,-8,-8,353
-3,-36,-27,-321,-16,-34,20,-351,3,-7,-1,-7,-22,14,2,7,-11,-1,352
-5,-32,-26,-323,-18,-35,26,-355,1,-1,-3,-12,-14,14,1,-2,-13,10,354
-9,-28,-28,-325,-20,-38,29,-356,-4,5,-5,-13,-11,14,1,-9,-12,18,357
-11,-24,-32,-327,-20,-42,29,-356,-11,8,-7,-11,-15,18,-3,-8,-10,19,357
-11,-20,-35,-331,-21,-46,29,-353,-13,8,-8,-6,-25,26,-7,-1,-11,10,354
-9,-16,-38,-333,-22,-49,28,-348,-13,6,-9,-1,-37,33,-8,7,-14,-6,346
-8,-13,-40,-332,-22,-50,25,-340,-10,3,-10,3,-48,39,-8,14,-18,-22,334
-8,-10,-42,-325,-22,-50,23,-331,-6,-4,-9,1,-55,41,-7,15,-20,-29,321
-8,-10,-43,-314,-23,-48,23,-323,-2,-12,-5,-5,-60,39,-3,10,-20,-25,313
-10,-11,-44,-303,-24,-46,24,-318,0,-20,-1,-12,-61,32,3,3,-17,-12,312
-14,-14,-46,-293,-27,-43,25,-317,-2,-24,1,-15,-60,22,9,-3,-10,3,317
-16,-19,-46,-285,-28,-41,25,-317,-6,-25,0,-14,-57,14,15,-6,-3,15,324
-15,-26,-43,-278,-28,-41,27,-316,-7,-20,-3,-8,-51,8,19,-4,2,20,327
-11,-31,-38,-275,-27,-41,31,-313,-7,-11,-8,1,-43,6,21,0,2,15,324
-5,-34,-30,-276,-23,-40,33,-311,-9,0,-11,11,-37,11,21,6,-2,3,318
0,-35,-21,-279,-20,-38,35,-306,-13,7,-9,18,-37,20,16,12,-6,-10,309
2,-34,-13,-283,-22,-38,36,-300,-17,9,-5,19,-39,29,8,16,-11,-21,297
2,-30,-8,-291,-24,-39,37,-297,-23,8,-1,16,-43,34,0,18,-17,-28,289
0,-23,-6,-298,-25,-43,37,-294,-29,7,1,11,-49,36,-6,17,-21,-28,282
-3,-17,-7,-298,-24,-47,36,-287,-33,4,0,5,-55,35,-10,14,-22,-25,272
-2,-11,-9,-289,-20,-51,34,-271,-32,1,-3,1,-56,30,-10,11,-23,-21,256
6,-6,-12,-272,-9,-54,31,-250,-27,2,-6,-4,-54,25,-5,7,-23,-18,234
16,-2,-17,-249,3,-55,30,-226,-22,8,-9,-8,-52,24,2,2,-22,-17,211
25,-1,-20,-221,11,-53,29,-200,-18,15,-11,-10,-52,27,7,1,-21,-19,186
30,-3,-20,-194,14,-51,29,-177,-12,20,-13,-10,-53,33,9,3,-21,-23,163
29,-6,-20,-174,13,-49,30,-162,-7,22,-15,-10,-54,38,10,4,-22,-26,147
23,-8,-19,-164,9,-48,31,-158,-4,20,-16,-9,-55,40,11,2,-22,-25,142
13,-11,-18,-170,2,-47,31,-169,-3,13,-15,-7,-57,41,12,-1,-22,-23,153
4,-13,-20,-195,-6,-45,29,-198,-1,5,-13,-5,-57,42,12,-5,-22,-22,183
-1,-14,-21,-239,-11,-44,24,-243,-1,-2,-11,-5,-57,41,13,-11,-20,-20,229
-3,-16,-22,-292,-14,-42,20,-294,-2,-3,-10,-9,-57,41,14,-15,-16,-16,284
-5,-18,-21,-345,-16,-41,13,-342,-3,-2,-7,-14,-59,42,11,-15,-12,-13,337
-9,-20,-15,-389,-18,-41,6,-379,-4,-2,-5,-19,-63,44,6,-10,-9,-15,375
-18,-21,-8,-417,-20,-44,2,-399,-6,-1,-1,-24,-70,45,1,-3,-10,-17,394
-30,-20,-4,-425,-24,-48,-1,-404,-12,0,3,-27,-76,44,0,2,-13,-19,396
-45,-18,-4,-421,-30,-52,-1,-402,-19,-1,4,-26,-82,42,0,4,-18,-22,389
-60,-15,-8,-415,-40,-54,1,-403,-27,-2,2,-20,-85,38,4,2,-25,-26,383
-74,-13,-13,-410,-49,-56,5,-408,-33,-5,-4,-12,-86,33,11,-5,-31,-27,381
-85,-13,-18,-406,-57,-60,9,-411,-34,-8,-11,-5,-82,26,18,-14,-34,-23,382
-91,-14,-19,-404,-61,-66,10,-411,-30,-12,-18,0,-75,19,23,-21,-34,-19,382
-95,-16,-19,-403,-61,-73,11,-408,-21,-13,-23,2,-68,14,26,-23,-34,-19,378
-99,-17,-17,-400,-59,-83,11,-400,-12,-13,-27,2,-63,12,25,-19,-35,-20,369
-107,-17,-16,-395,-60,-90,8,-391,-8,-8,-31,0,-62,12,22,-14,-39,-23,356
-120,-17,-16,-388,-68,-93,2,-381,-13,0,-37,-1,-66,11,18,-9,-44,-27,341
-141,-18,-16,-381,-84,-93,-5,-372,-28,8,-42,-1,-76,10,14,-7,-51,-30,326
-167,-19,-15,-376,-107,-92,-10,-365,-52,11,-45,-2,-92,10,10,-11,-58,-30,311
-195,-22,-11,-373,-133,-94,-12,-360,-79,9,-45,-4,-115,9,9,-18,-67,-32,296
-222,-26,-8,-368,-158,-100,-11,-355,-108,4,-41,-4,-139,6,12,-24,-77,-37,281
-246,-31,-6,-364,-179,-109,-5,-351,-135,-3,-30,-6,-163,2,18,-28,-88,-48,266
-265,-35,-6,-358,-194,-120,1,-349,-155,-9,-16,-8,-181,1,27,-31,-99,-62,253
-276,-40,-6,-350,-203,-128,7,-347,-168,-9,-4,-7,-192,3,37,-32,-108,-77,242
-280,-47,-6,-338,-206,-132,9,-341,-175,-6,5,-2,-196,6,44,-29,-110,-90,234
-277,-53,-6,-327,-204,-132,7,-331,-176,-1,9,4,-194,14,46,-25,-104,-98,231
-268,-58,-3,-318,-198,-127,1,-320,-168,3,9,10,-188,25,43,-22,-90,-99,233
-256,-60,1,-310,-190,-118,-5,-310,-155,6,5,14,-177,32,38,-20,-74,-94,239
-241,-57,4,-305,-179,-105,-11,-302,-139,7,0,15,-163,35,33,-19,-58,-85,247
-225,-47,6,-302,-166,-89,-15,-297,-122,10,-5,13,-146,35,29,-19,-46,-71,254
-206,-34,5,-302,-148,-74,-16,-297,-103,15,-10,10,-125,32,28,-20,-38,-57,261
-180,-22,4,-310,-127,-61,-15,-305,-85,22,-16,10,-104,28,29,-19,-35,-45,272
-149,-14,0,-326,-103,-50,-15,-319,-66,25,-21,14,-84,25,31,-17,-34,-37,288
-114,-9,-5,-346,-76,-43,-17,-338,-45,25,-25,20,-67,27,33,-16,-32,-33,308
-81,-7,-11,-369,-50,-39,-19,-358,-20,20,-30,26,-49,32,36,-20,-28,-29,333
-53,-5,-16,-390,-27,-38,-22,-377,8,12,-33,29,-29,39,40,-30,-22,-24,357
-31,-5,-20,-402,-8,-37,-24,-389,38,6,-36,29,-7,44,44,-41,-13,-16,378
-14,-5,-23,-406,6,-35,-24,-393,64,5,-38,27,16,48,47,-50,-3,-11,392
0,-6,-24,-405,16,-32,-22,-394,84,8,-39,26,36,50,48,-53,5,-8,400
13,-8,-22,-401,21,-28,-20,-391,96,13,-40,25,51,49,47,-51,8,-11,401
24,-13,-16,-396,24,-21,-18,-385,103,16,-38,24,59,48,47,-46,9,-17,396
33,-18,-9,-392,26,-14,-18,-379,104,16,-34,23,60,47,48,-43,6,-23,387
40,-21,0,-387,30,-9,-15,-372,101,14,-29,23,55,50,49,-42,1,-27,374
46,-22,8,-381,33,-7,-10,-364,97,12,-22,22,48,55,49,-42,-3,-26,363
50,-21,15,-378,37,-6,-4,-360,91,11,-13,18,42,61,49,-42,-4,-21,358
55,-19,17,-377,40,-5,3,-360,83,12,-2,12,36,64,47,-39,-5,-16,357
61,-15,15,-377,42,-3,9,-363,75,14,7,4,32,63,44,-36,-7,-13,357
65,-12,12,-376,42,0,13,-365,70,15,13,-3,28,60,41,-32,-13,-14,354
66,-11,9,-375,41,3,13,-367,66,17,13,-8,24,57,38,-29,-21,-20,347
66,-13,6,-370,40,5,10,-366,61,19,10,-11,17,55,37,-28,-30,-27,338
64,-15,3,-364,40,5,6,-361,56,23,6,-11,10,54,38,-28,-35,-35,328
60,-16,0,-358,39,0,5,-357,49,26,2,-9,4,55,40,-29,-38,-41,320
56,-13,-6,-353,37,-8,9,-353,42,28,-1,-10,-3,58,40,-32,-40,-41,315
51,-9,-11,-347,35,-17,14,-347,37,28,-2,-13,-9,60,39,-37,-37,-34,311
44,-5,-12,-340,31,-23,18,-337,33,24,-2,-16,-12,60,37,-43,-32,-26,307
36,-3,-8,-334,26,-26,19,-326,30,19,0,-17,-15,60,32,-45,-24,-18,303
29,-5,-1,-330,21,-26,15,-317,24,13,1,-15,-19,59,27,-42,-16,-12,303
22,-11,9,-331,18,-22,6,-312,18,8,4,-11,-21,55,23,-38,-8,-9,305
17,-17,17,-336,16,-14,-7,-312,11,4,7,-5,-19,48,22,-32,-2,-7,311
13,-19,21,-344,13,-6,-18,-317,5,1,9,2,-16,39,24,-28,1,-4,320
9,-18,21,-349,9,1,-25,-322,0,-1,10,6,-11,29,25,-25,0,-1,323
5,-15,19,-350,5,5,-27,-323,-4,-3,11,8,-9,21,24,-23,-4,3,320
1,-10,16,-348,2,6,-28,-321,-7,-5,12,6,-11,17,22,-21,-7,8,315
-2,-6,14,-345,0,5,-27,-316,-12,-4,12,1,-17,16,20,-20,-9,12,308
-3,-3,14,-343,0,2,-26,-311,-14,-2,14,-8,-23,16,19,-21,-10,13,302
-3,-2,15,-340,1,-1,-23,-306,-14,0,16,-18,-28,18,19,-23,-11,13,296
-2,-3,18,-336,3,-5,-20,-302,-11,4,17,-26,-28,19,21,-25,-11,11,292
-3,-4,18,-329,3,-7,-20,-295,-5,8,19,-33,-24,18,22,-26,-9,8,287
-6,-5,14,-317,0,-8,-19,-287,2,9,21,-37,-17,18,19,-24,-10,2,278
-9,-5,8,-304,-2,-10,-19,-279,10,7,22,-38,-12,21,13,-20,-14,-7,266
-11,-3,2,-294,-5,-10,-21,-269,18,3,19,-34,-10,27,9,-19,-17,-14,253
-12,0,-2,-286,-6,-8,-24,-260,24,-3,16,-30,-12,35,7,-21,-16,-18,245
-11,2,-3,-282,-6,-8,-26,-253,27,-8,11,-23,-17,42,8,-24,-12,-17,242
-10,1,2,-282,-6,-9,-23,-251,25,-9,5,-14,-21,45,12,-27,-8,-14,243
-9,-4,11,-285,-8,-8,-20,-251,20,-6,2,-4,-25,46,17,-25,-3,-13,249
-9,-11,21,-289,-11,-5,-17,-255,15,-3,1,10,-29,46,21,-15,-1,-19,254
-8,-18,30,-293,-12,-3,-12,-262,14,-1,2,23,-29,46,21,0,-6,-31,256
-8,-20,37,-297,-10,0,-4,-272,20,-1,5,32,-25,48,20,13,-17,-46,255
-7,-17,40,-300,-7,3,2,-281,27,-2,8,38,-22,51,19,23,-30,-60,251
-7,-9,38,-302,-3,3,6,-286,33,-4,9,39,-21,56,18,26,-38,-66,249
-8,1,31,-301,3,0,7,-287,36,-6,8,34,-23,64,12,22,-38,-61,249
-9,8,21,-299,7,-4,4,-285,33,-4,6,26,-25,70,5,12,-33,-47,253
-10,11,11,-297,8,-8,-3,-282,24,0,4,19,-29,74,-1,3,-23,-33,259
-10,10,3,-296,10,-12,-12,-278,13,3,5,13,-34,77,-5,-4,-11,-22,268
-7,4,-1,-294,14,-17,-21,-274,6,5,8,7,-37,78,-5,-9,1,-16,275
-1,-3,-3,-291,17,-21,-26,-269,1,5,14,0,-37,73,1,-15,10,-14,279
4,-10,-6,-286,16,-23,-28,-262,0,4,21,-5,-37,66,11,-18,16,-17,278
7,-12,-10,-277,12,-22,-29,-252,3,0,26,-6,-37,60,21,-19,19,-24,271
9,-13,-11,-268,6,-19,-30,-241,11,-6,30,-8,-37,58,25,-19,19,-32,260
10,-14,-11,-264,0,-14,-29,-236,19,-11,33,-11,-35,59,23,-17,13,-40,250
8,-14,-9,-264,-6,-9,-27,-238,26,-13,34,-14,-32,62,16,-12,4,-47,242
6,-13,-5,-271,-10,-4,-23,-246,29,-12,34,-16,-29,66,7,-8,-5,-51,241
6,-12,1,-281,-10,0,-17,-258,28,-8,32,-19,-27,67,0,-5,-13,-48,245
8,-10,6,-290,-8,3,-11,-269,24,-1,27,-20,-26,66,-4,-5,-18,-40,251
9,-7,9,-293,-8,9,-8,-275,17,4,20,-17,-29,63,-4,-7,-20,-32,256
8,-4,10,-292,-11,17,-6,-277,9,6,14,-13,-35,63,-1,-11,-18,-22,259
7,-3,10,-284,-14,24,-6,-274,3,4,11,-10,-41,64,2,-16,-14,-11,260
6,-5,11,-270,-15,29,-7,-265,0,1,12,-10,-45,65,3,-20,-10,-4,256
6,-9,12,-255,-16,30,-6,-254,1,-3,16,-11,-47,66,3,-20,-9,-3,245
6,-11,15,-241,-13,27,-4,-240,3,-6,20,-14,-47,66,1,-15,-11,-8,229
8,-10,19,-229,-7,22,-3,-224,5,-6,25,-18,-44,64,-4,-10,-16,-13,208
10,-6,23,-221,0,19,-5,-207,6,-4,31,-25,-42,62,-8,-3,-22,-20,185
10,0,26,-219,4,19,-11,-195,5,-4,38,-32,-42,60,-13,1,-27,-26,169
6,7,26,-221,5,22,-20,-189,1,-3,42,-41,-45,59,-16,1,-26,-25,163
0,15,23,-223,4,27,-28,-188,-5,-2,46,-50,-49,58,-17,-3,-22,-18,166
-7,22,17,-222,1,34,-34,-190,-10,0,52,-57,-52,57,-14,-6,-19,-13,172
-13,28,12,-218,-3,40,-36,-192,-13,4,59,-61,-54,57,-10,-3,-19,-16,173
-18,30,10,-212,-6,42,-33,-191,-14,9,64,-62,-56,57,-5,1,-21,-21,170
-21,29,12,-204,-9,39,-28,-187,-13,12,66,-63,-58,58,-1,5,-24,-27,162
-20,22,18,-198,-9,32,-24,-178,-10,11,67,-63,-60,58,0,7,-26,-31,152
-15,2,32,-195,-6,23,-23,-170,-6,6,64,-62,-61,58,-1,6,-23,-29,147
-8,-33,57,-196,-1,14,-24,-168,-4,0,56,-60,-62,55,-5,4,-15,-20,153
0,-81,91,-199,4,7,-27,-171,-3,-8,46,-55,-59,50,-10,0,-3,-7,168
6,-136,131,-205,8,1,-32,-182,-3,-16,38,-51,-55,44,-18,-1,10,8,192
7,-191,174,-213,10,-1,-34,-198,-3,-21,34,-48,-50,40,-28,1,21,20,218
4,-237,215,-225,8,-1,-34,-215,-6,-23,31,-45,-48,37,-34,3,26,27,241
-2,-264,247,-239,5,0,-32,-231,-10,-24,29,-41,-48,35,-35,3,25,28,256
-7,-274,267,-255,3,3,-31,-244,-16,-24,30,-38,-52,33,-31,2,19,25,263
-11,-273,278,-270,1,7,-32,-254,-24,-23,33,-35,-57,29,-23,2,10,17,264
-11,-270,281,-280,0,13,-31,-261,-33,-22,39,-30,-60,24,-14,5,-2,5,259
-5,-266,279,-282,2,17,-29,-265,-40,-22,45,-24,-64,21,-7,9,-15,-6,250
4,-263,273,-281,6,18,-25,-267,-44,-25,51,-20,-68,22,-3,12,-25,-16,242
13,-260,264,-280,12,15,-20,-269,-43,-29,56,-17,-71,25,-1,13,-33,-21,236
21,-256,257,-278,19,10,-13,-272,-39,-32,57,-17,-73,30,0,12,-38,-22,233
26,-250,253,-279,25,5,-6,-273,-34,-33,55,-18,-75,35,0,10,-38,-16,235
26,-241,251,-281,28,1,-2,-272,-28,-30,51,-22,-76,40,-1,10,-32,-8,240
21,-233,249,-280,26,0,-1,-268,-22,-24,49,-28,-77,43,-7,15,-23,-1,245
13,-225,247,-274,21,2,-2,-260,-18,-17,48,-35,-77,47,-16,23,-13,5,247
5,-217,241,-264,16,6,-7,-250,-19,-10,46,-39,-78,49,-24,31,-4,8,245
-1,-209,230,-253,15,7,-13,-241,-25,-6,45,-40,-79,48,-29,34,0,8,241
-3,-202,218,-244,18,5,-17,-237,-31,-6,44,-39,-79,45,-32,35,0,7,237
-1,-197,206,-239,22,3,-20,-236,-38,-10,43,-36,-76,37,-33,34,-2,6,233
5,-195,196,-234,27,0,-22,-235,-42,-16,42,-31,-72,25,-32,33,-5,7,230
10,-196,186,-230,29,-3,-22,-233,-40,-25,38,-25,-69,14,-31,32,-4,11,229
14,-194,175,-226,29,-7,-23,-230,-35,-35,31,-20,-68,7,-31,34,0,17,229
15,-190,162,-217,25,-9,-24,-223,-29,-42,24,-16,-68,3,-33,36,8,23,230
13,-186,150,-206,21,-9,-26,-214,-27,-45,17,-13,-71,2,-35,36,19,31,232
11,-179,140,-194,21,-11,-26,-206,-28,-45,14,-12,-75,3,-35,35,30,39,235
9,-173,133,-184,22,-13,-24,-200,-33,-42,18,-17,-76,5,-35,32,37,42,236
7,-168,131,-177,24,-14,-22,-196,-41,-36,28,-26,-73,3,-34,30,39,41,234
4,-166,133,-177,24,-14,-22,-193,-51,-28,39,-39,-71,-2,-31,25,39,40,232
1,-164,137,-182,24,-16,-23,-194,-59,-19,47,-51,-70,-7,-27,23,39,39,233
-5,-163,141,-191,21,-18,-24,-197,-65,-10,52,-58,-69,-11,-25,25,36,35,233
-16,-162,144,-199,11,-20,-25,-199,-69,-3,53,-58,-71,-14,-24,31,34,30,233
-31,-160,145,-202,-2,-22,-26,-198,-69,-2,49,-51,-75,-13,-24,39,33,24,230
-43,-157,140,-199,-15,-23,-26,-194,-67,-6,45,-41,-80,-7,-26,46,32,16,226
-53,-153,132,-193,-27,-24,-26,-190,-65,-12,43,-31,-84,-2,-27,49,31,9,221
-59,-150,123,-186,-33,-23,-29,-187,-64,-19,42,-25,-86,-3,-25,48,31,5,218
-61,-148,113,-180,-33,-22,-34,-187,-67,-23,40,-24,-86,-8,-24,44,33,8,220
-60,-147,105,-177,-29,-23,-38,-190,-70,-23,34,-24,-84,-11,-26,38,35,13,224
-62,-146,100,-176,-25,-27,-39,-193,-73,-17,26,-25,-81,-13,-28,33,33,18,226
-68,-145,97,-179,-24,-36,-39,-196,-75,-9,17,-27,-80,-15,-28,29,31,21,226
-81,-145,95,-181,-30,-47,-39,-196,-79,-1,9,-29,-85,-18,-24,27,29,22,224
-98,-147,93,-182,-46,-58,-38,-193,-89,4,4,-33,-101,-24,-16,27,27,20,219
-122,-149,89,-182,-69,-68,-40,-188,-108,5,4,-40,-127,-36,-6,30,26,14,213
-150,-154,84,-181,-97,-76,-43,-184,-136,3,9,-51,-158,-56,5,34,24,8,207
-184,-158,78,-177,-131,-83,-44,-183,-172,-1,15,-61,-192,-75,10,38,19,1,201
-223,-159,72,-173,-166,-90,-42,-186,-212,-4,19,-68,-228,-83,8,38,9,-5,195
-260,-157,67,-170,-198,-96,-38,-189,-251,-6,21,-72,-261,-81,-2,35,0,-10,188
-292,-156,64,-167,-224,-103,-34,-189,-286,-5,21,-72,-287,-71,-15,29,-7,-15,181
-313,-156,61,-164,-243,-111,-32,-187,-314,-4,19,-68,-304,-60,-27,24,-11,-19,175
-322,-158,57,-164,-252,-119,-32,-184,-333,-5,17,-61,-314,-52,-39,24,-9,-21,175
-320,-162,54,-166,-254,-125,-35,-179,-344,-7,17,-53,-318,-50,-48,29,-4,-25,175
-311,-167,52,-168,-252,-126,-41,-175,-345,-11,17,-48,-316,-52,-54,35,-1,-29,173
-299,-169,50,-170,-247,-125,-46,-171,-339,-15,15,-44,-309,-56,-56,38,0,-33,171
-287,-167,49,-172,-240,-122,-48,-168,-327,-18,10,-41,-301,-58,-56,38,0,-35,168
-275,-163,48,-173,-232,-117,-52,-162,-308,-22,1,-39,-291,-56,-55,33,1,-35,163
-265,-156,46,-172,-223,-113,-57,-154,-284,-25,-10,-34,-277,-50,-54,28,5,-35,158
-257,-146,44,-173,-211,-114,-60,-147,-258,-29,-22,-28,-261,-45,-55,24,11,-34,158
-248,-135,41,-177,-195,-118,-61,-144,-234,-31,-28,-21,-241,-40,-56,23,19,-31,163
-238,-125,39,-182,-177,-122,-59,-147,-213,-32,-26,-17,-220,-36,-56,24,25,-30,171
-224,-116,37,-184,-159,-123,-56,-150,-196,-30,-17,-16,-201,-31,-53,26,24,-32,173
-205,-110,36,-181,-141,-119,-50,-149,-182,-26,-3,-18,-183,-23,-49,26,19,-34,168
-179,-107,36,-174,-123,-111,-42,-148,-170,-19,10,-24,-169,-14,-42,23,12,-33,160
-150,-107,37,-166,-105,-99,-35,-146,-156,-12,19,-30,-157,-4,-35,17,4,-30,150
-122,-107,38,-157,-90,-84,-32,-143,-140,-6,21,-35,-148,8,-30,11,-1,-24,141
-99,-105,39,-149,-77,-67,-31,-139,-122,1,17,-38,-138,19,-26,4,-1,-14,138
-83,-101,42,-145,-68,-50,-30,-139,-102,8,12,-38,-125,27,-22,2,2,-6,140
-70,-93,46,-142,-60,-31,-31,-138,-81,14,10,-33,-110,33,-18,4,5,-5,142
-58,-85,49,-138,-53,-11,-34,-134,-59,16,13,-27,-91,37,-14,11,10,-7,143
-42,-77,52,-133,-42,6,-35,-130,-36,17,21,-21,-69,40,-10,20,13,-14,143
-21,-69,54,-134,-23,17,-36,-129,-15,17,28,-16,-47,41,-8,29,15,-22,144
6,-62,53,-140,2,24,-38,-131,3,18,32,-11,-25,41,-7,33,18,-28,148
33,-57,50,-147,28,27,-40,-135,20,18,32,-8,-4,40,-7,32,21,-27,156
61,-55,46,-151,54,28,-41,-140,32,20,29,-8,13,41,-8,27,25,-20,164
88,-55,41,-150,76,30,-42,-140,41,22,23,-7,25,45,-10,18,30,-10,170
112,-57,37,-143,90,36,-43,-135,45,24,17,-5,31,51,-13,12,38,4,173
131,-61,32,-131,97,43,-39,-130,48,26,14,-2,36,56,-16,10,45,15,174
145,-62,26,-119,99,49,-33,-126,52,28,13,3,40,62,-18,11,48,21,173
155,-60,21,-111,100,54,-25,-124,55,32,13,8,47,64,-18,16,49,21,172
162,-55,21,-111,100,57,-17,-124,59,36,13,13,55,63,-18,21,48,19,172
169,-49,24,-116,101,60,-9,-123,66,40,11,16,63,59,-17,27,45,14,168
176,-44,31,-120,105,61,-6,-117,73,39,8,19,68,56,-16,32,44,11,161
183,-41,40,-125,111,62,-7,-110,80,35,2,23,69,51,-16,35,45,10,155
187,-39,44,-129,116,65,-10,-107,85,26,-3,25,66,46,-16,36,46,11,153
189,-37,43,-132,119,66,-14,-109,87,16,-5,24,61,42,-14,34,46,13,155
187,-32,35,-133,124,67,-17,-116,87,9,-3,20,58,39,-12,27,46,18,162
185,-25,25,-137,129,68,-21,-127,85,6,0,14,58,37,-10,20,45,24,171
185,-19,18,-143,134,68,-25,-136,81,6,5,7,59,35,-8,13,44,27,179
186,-16,17,-146,140,69,-28,-139,77,9,8,1,60,34,-8,9,42,28,180
188,-14,19,-143,147,69,-31,-135,75,10,11,-4,59,34,-10,8,40,26,175
191,-13,19,-139,155,68,-34,-130,77,7,12,-8,57,36,-14,10,38,24,167
192,-11,20,-134,161,66,-34,-126,77,4,14,-11,52,39,-20,11,34,21,159
194,-9,18,-128,165,67,-33,-124,75,3,14,-15,46,46,-26,12,29,21,152
198,-6,12,-121,168,69,-30,-124,72,2,13,-15,41,49,-27,10,25,23,148
203,-2,6,-116,172,71,-25,-125,69,3,11,-12,40,46,-24,9,22,26,147
209,-1,5,-113,175,72,-20,-127,63,7,9,-4,41,39,-18,12,19,25,145
215,-3,5,-108,177,73,-15,-126,57,11,5,6,42,28,-9,18,16,20,141
216,-7,5,-103,176,71,-11,-123,51,14,3,15,43,16,-1,25,13,13,135
213,-12,5,-97,172,65,-9,-118,45,16,4,19,45,5,4,32,11,6,129
206,-18,6,-92,164,57,-10,-108,37,18,6,18,45,-4,4,35,12,1,120
196,-25,8,-86,152,50,-14,-95,29,18,5,15,44,-9,1,32,14,-1,109
185,-28,9,-81,141,45,-18,-83,25,13,3,14,42,-10,-1,25,17,-1,99
172,-27,12,-79,132,40,-20,-74,26,5,1,17,40,-8,-4,21,21,-1,94
163,-23,14,-79,127,36,-21,-67,30,-2,-3,25,37,-1,-8,22,28,-3,94
157,-14,16,-82,128,34,-23,-62,37,-6,-9,34,33,10,-13,26,36,-6,97
156,-3,17,-90,131,35,-24,-62,47,-6,-13,38,31,20,-18,33,42,-10,103
159,9,14,-100,135,35,-22,-67,54,-1,-15,34,30,26,-23,39,43,-13,110
165,17,9,-109,140,35,-20,-74,56,8,-15,22,31,26,-25,38,41,-13,115
170,21,4,-113,143,36,-19,-79,52,17,-12,6,33,21,-23,31,35,-11,113
172,20,0,-111,143,37,-16,-82,47,21,-8,-10,34,14,-18,20,22,-11,104
169,16,-3,-102,141,36,-12,-86,41,20,-4,-18,34,8,-12,9,8,-11,94
164,9,-4,-92,140,34,-9,-88,36,16,-3,-15,34,4,-4,0,0,-11,88
157,3,-1,-81,138,34,-9,-86,33,9,-3,-3,32,2,3,-2,-1,-11,84
149,0,4,-72,137,32,-8,-81,31,1,-4,13,29,3,7,2,2,-12,82
142,-1,7,-66,137,29,-7,-77,29,-4,-4,28,25,6,5,13,8,-12,85
136,-1,8,-63,136,24,-7,-73,27,-5,-2,38,21,8,1,28,17,-11,90
133,-1,6,-61,132,17,-5,-67,23,-6,2,43,15,10,-6,42,24,-11,90
132,-1,3,-60,127,10,-1,-62,20,-8,5,42,9,11,-12,50,24,-11,86
132,2,0,-64,121,5,5,-62,19,-7,7,35,3,14,-15,53,17,-13,79
132,7,-3,-73,116,2,8,-63,20,-4,8,26,-2,18,-17,49,9,-15,71
129,14,-4,-83,110,3,8,-64,23,0,6,16,-3,24,-16,40,2,-18,65
125,22,-3,-92,104,5,7,-64,27,7,4,6,-2,31,-13,28,-4,-20,60
119,28,-3,-98,99,6,4,-64,31,14,4,-3,1,38,-10,17,-5,-23,58
111,30,-4,-104,94,7,0,-66,34,20,3,-9,5,42,-6,7,-2,-23,63
106,28,-9,-107,88,6,-5,-71,36,21,1,-10,9,43,-2,-2,1,-25,72
103,24,-17,-107,83,5,-8,-78,34,18,-1,-7,10,41,1,-10,0,-26,78
101,21,-25,-106,81,4,-9,-85,30,13,-3,-6,10,38,1,-14,-4,-23,80
98,20,-32,-104,79,4,-10,-91,29,9,-7,-5,10,33,-2,-14,-10,-19,80
94,19,-36,-102,77,5,-11,-96,28,8,-11,-3,9,29,-6,-10,-17,-18,78
88,17,-36,-98,71,8,-11,-98,27,7,-14,1,6,30,-10,-5,-23,-20,75
81,14,-31,-95,65,12,-10,-98,24,8,-14,6,3,33,-13,1,-26,-23,71
74,11,-24,-91,59,16,-8,-95,22,11,-13,10,1,38,-16,6,-27,-27,68
69,10,-17,-85,54,19,-6,-91,22,13,-11,13,2,44,-18,9,-29,-33,61
66,11,-11,-80,50,22,-3,-84,24,14,-7,12,5,49,-20,10,-33,-40,51
64,14,-7,-77,51,20,2,-79,26,15,-3,7,10,47,-21,9,-38,-43,41
64,19,-6,-80,54,14,7,-79,29,16,-3,0,16,39,-20,8,-43,-43,36
63,22,-7,-86,58,5,10,-82,35,13,-5,-5,22,27,-17,6,-45,-41,36
60,21,-7,-94,59,-4,10,-86,40,7,-8,-6,22,18,-14,5,-43,-38,43
54,20,-7,-102,58,-13,7,-88,40,-1,-10,-3,18,14,-10,5,-35,-33,53
48,18,-7,-108,58,-20,1,-86,39,-9,-10,2,11,12,-6,5,-23,-25,63
41,18,-6,-108,58,-23,-9,-80,38,-18,-7,6,3,14,-4,5,-11,-16,69
33,20,-5,-106,56,-20,-19,-75,37,-25,-2,9,-2,19,-4,6,-2,-10,72
26,25,-7,-103,53,-15,-24,-74,36,-27,1,11,-4,23,-6,8,2,-6,75
20,29,-11,-97,49,-9,-25,-73,37,-26,1,10,-2,27,-9,6,1,-3,74
15,32,-13,-88,45,-5,-23,-71,41,-23,-2,6,2,30,-11,2,-2,-1,68
14,31,-13,-80,42,-4,-21,-66,47,-17,-6,2,8,32,-11,-4,-6,-5,59
14,28,-10,-75,43,-7,-19,-59,51,-8,-10,-4,14,34,-10,-9,-12,-12,46
17,25,-4,-73,50,-15,-18,-52,55,0,-12,-9,21,33,-7,-12,-18,-22,33
22,24,2,-76,62,-23,-19,-48,58,7,-12,-13,26,32,-6,-11,-25,-33,23
29,25,6,-83,73,-30,-18,-50,58,10,-9,-12,27,31,-7,-5,-30,-43,19
34,28,6,-92,81,-34,-16,-55,56,9,-5,-9,25,31,-9,3,-33,-49,22
36,33,4,-99,84,-35,-13,-63,54,2,-3,-5,20,33,-13,8,-33,-47,30
37,35,0,-103,81,-32,-12,-69,53,-8,-3,-1,14,35,-17,8,-29,-39,39
37,35,-4,-102,76,-26,-14,-70,55,-18,-4,1,9,38,-21,8,-21,-28,49
38,32,-8,-99,72,-22,-17,-72,58,-23,-7,3,9,37,-26,9,-11,-17,60
41,27,-13,-94,73,-19,-20,-73,59,-20,-13,3,14,35,-32,11,-1,-6,72
47,22,-14,-88,77,-19,-20,-72,59,-11,-20,3,21,32,-36,13,7,2,78
54,18,-13,-84,82,-22,-17,-69,55,-1,-25,3,26,27,-37,15,10,4,79
59,16,-10,-84,86,-24,-13,-67,49,7,-28,5,29,21,-33,16,9,0,75
60,18,-6,-87,85,-25,-7,-68,43,10,-26,9,31,15,-25,15,3,-7,71
56,24,-3,-92,81,-23,-2,-69,40,7,-20,12,33,12,-20,12,-3,-12,66
51,31,-2,-96,75,-21,-1,-69,40,0,-12,12,34,13,-18,10,-7,-15,62
44,40,-4,-98,72,-17,-5,-67,42,-8,-4,13,37,12,-17,10,-5,-14,61
39,47,-6,-97,72,-14,-9,-65,47,-16,1,13,40,12,-19,13,-1,-9,63
35,52,-8,-94,74,-14,-13,-62,55,-22,1,15,42,11,-20,16,4,-5,65
34,52,-9,-90,77,-14,-17,-58,62,-24,-3,18,45,8,-19,19,6,-6,64
35,48,-10,-86,77,-14,-19,-57,67,-21,-10,21,49,4,-13,18,7,-9,63
35,44,-10,-86,76,-13,-17,-63,71,-14,-17,22,52,2,-6,14,5,-11,67
33,42,-11,-89,72,-12,-11,-73,72,-4,-23,19,53,3,1,6,2,-10,74
31,43,-11,-92,68,-11,-6,-81,69,6,-27,14,53,8,5,-3,-1,-8,79
29,44,-11,-95,67,-10,-3,-87,63,14,-26,8,50,14,5,-10,-5,-8,81
27,45,-12,-96,66,-11,-2,-89,57,17,-21,6,45,20,6,-12,-8,-12,80
27,45,-15,-92,69,-16,-1,-87,49,17,-14,7,39,22,9,-10,-11,-19,75
31,44,-18,-87,74,-20,-2,-83,42,13,-6,10,33,20,10,-5,-17,-30,66
37,41,-22,-82,79,-21,-4,-79,35,8,0,16,28,18,12,2,-23,-43,55
45,39,-25,-78,83,-20,-5,-78,29,4,2,22,20,16,14,7,-31,-51,47
55,40,-28,-79,88,-16,-3,-81,27,2,-2,26,13,15,14,8,-38,-53,42
65,44,-31,-83,92,-11,0,-85,31,-1,-9,27,11,17,12,8,-44,-51,40
73,46,-33,-87,94,-8,2,-88,38,-3,-16,27,11,20,8,6,-45,-44,43
76,46,-34,-89,93,-9,3,-88,44,-5,-22,23,13,20,5,2,-38,-32,49
73,47,-34,-89,92,-13,4,-86,49,-7,-26,19,13,18,4,0,-29,-20,57
63,49,-35,-85,90,-21,6,-83,51,-10,-26,16,14,16,2,-1,-20,-11,62
50,50,-36,-80,85,-28,8,-81,49,-12,-25,15,13,13,1,-1,-16,-6,64
35,52,-35,-75,79,-31,8,-79,43,-11,-22,13,15,10,1,-2,-16,-4,62
24,57,-35,-70,74,-30,8,-76,38,-9,-18,11,19,7,2,-5,-19,-5,57
18,61,-34,-67,69,-26,8,-73,36,-7,-12,10,26,4,3,-6,-23,-8,49
17,61,-30,-69,64,-20,3,-68,39,-8,-5,7,33,2,5,-8,-23,-8,45
20,59,-26,-73,61,-13,-5,-63,43,-13,2,3,37,2,6,-11,-14,-3,49
25,56,-23,-78,59,-9,-9,-60,51,-19,6,2,39,4,7,-11,-4,2,55
30,53,-22,-80,58,-9,-9,-60,57,-24,7,4,38,8,8,-10,1,4,61
32,54,-23,-83,60,-10,-7,-63,57,-24,7,6,35,11,10,-10,3,6,66
31,57,-26,-84,64,-15,-2,-69,52,-22,10,7,33,12,13,-10,1,6,69
26,60,-25,-84,68,-21,6,-75,44,-19,18,7,33,12,14,-9,-6,5,69
18,61,-19,-83,69,-24,12,-80,33,-18,27,5,31,11,16,-9,-14,5,66
9,59,-10,-84,67,-26,16,-83,23,-18,36,1,26,11,16,-11,-20,9,62
2,54,1,-85,63,-27,19,-83,17,-22,40,-3,19,11,15,-12,-23,15,60
-2,47,8,-85,57,-26,19,-82,17,-27,38,-5,14,11,13,-15,-26,17,55
-2,42,10,-86,50,-24,18,-80,21,-28,29,-5,12,11,10,-16,-31,15,48
0,39,7,-88,43,-20,15,-79,24,-25,17,-4,10,13,5,-15,-35,8,43
0,39,0,-90,35,-17,11,-80,25,-20,8,-1,9,15,-2,-11,-36,0,43
-4,40,-8,-91,26,-15,9,-83,24,-16,1,5,9,16,-5,-5,-35,-9,48
-10,41,-14,-91,17,-14,10,-87,18,-10,-3,14,9,15,-5,0,-31,-15,55
-17,42,-16,-87,12,-14,11,-86,8,-5,-5,22,8,14,-3,2,-26,-15,59
-20,43,-13,-82,12,-15,11,-80,-2,-1,-4,28,7,11,2,1,-22,-10,58
-19,41,-9,-79,17,-18,9,-73,-9,-1,-3,32,9,5,7,-3,-18,-2,54
-12,36,-5,-78,27,-23,6,-68,-13,-2,1,30,13,-1,13,-10,-15,7,52
0,30,-4,-78,39,-27,1,-65,-14,-3,5,26,17,-3,15,-15,-13,15,51
12,24,-5,-78,49,-28,-4,-65,-11,-3,6,24,19,0,14,-16,-10,21,54
21,20,-11,-76,55,-28,-7,-66,-4,-3,6,23,19,7,10,-14,-6,22,60
24,20,-18,-68,55,-25,-9,-63,3,-5,7,23,18,15,5,-9,-1,20,61
24,24,-26,-58,51,-20,-9,-59,11,-8,8,23,16,22,-2,-2,2,16,60
22,27,-31,-51,45,-15,-7,-56,20,-14,7,23,15,25,-8,4,3,12,59
19,29,-30,-48,39,-12,-4,-53,29,-21,6,21,14,20,-8,8,4,9,57
16,29,-26,-50,34,-13,1,-52,35,-28,5,16,13,11,-4,9,5,10,56
16,26,-19,-57,32,-15,6,-57,38,-29,1,14,13,1,2,8,3,11,60
19,23,-13,-67,35,-17,9,-66,38,-26,-5,16,13,-6,7,8,3,13,68
22,18,-8,-73,40,-18,9,-72,35,-20,-9,17,11,-5,8,9,6,16,77
23,16,-5,-77,44,-17,7,-77,29,-14,-7,17,9,-1,5,11,9,21,86
20,16,-4,-79,45,-14,5,-83,21,-10,-1,15,6,3,2,15,11,24,94
14,17,-4,-81,41,-10,0,-86,12,-7,5,14,0,7,-3,19,13,25,99
4,18,-4,-83,32,-4,-6,-86,4,-6,6,13,-10,13,-8,21,14,25,99
-9,20,-3,-84,17,1,-10,-83,-2,-6,3,12,-22,19,-11,20,12,24,95
-25,22,-5,-83,-1,1,-13,-79,-8,-6,-5,12,-32,21,-13,17,12,22,90
-44,22,-12,-80,-16,-6,-17,-75,-13,-6,-17,13,-40,19,-13,10,15,24,90
-62,21,-21,-79,-28,-17,-21,-73,-16,-6,-29,13,-44,18,-13,2,24,29,96
-80,20,-31,-78,-37,-32,-26,-75,-20,-5,-36,13,-44,13,-13,-4,34,38,109
-95,18,-41,-80,-43,-47,-27,-81,-27,-2,-39,13,-40,4,-13,-5,43,48,124
-106,14,-47,-84,-49,-58,-25,-91,-32,1,-37,15,-35,-5,-12,-1,48,55,138
-116,10,-51,-89,-59,-64,-21,-101,-39,2,-30,17,-35,-11,-13,8,47,58,147
-128,5,-53,-92,-75,-68,-17,-108,-52,0,-20,18,-43,-14,-17,20,41,55,149
-150,0,-57,-93,-100,-75,-13,-112,-71,-5,-10,17,-63,-16,-21,29,33,49,145
-185,-6,-63,-94,-134,-86,-12,-115,-99,-13,-4,13,-95,-17,-26,33,25,41,140
-229,-11,-72,-96,-173,-101,-17,-117,-136,-21,-3,6,-138,-16,-33,33,20,34,137
-273,-16,-83,-98,-210,-118,-25,-117,-180,-25,-7,-1,-184,-16,-40,28,19,29,136
-314,-19,-92,-102,-241,-136,-31,-117,-224,-24,-14,-6,-225,-19,-44,20,20,26,137
-344,-21,-95,-105,-263,-153,-32,-117,-262,-20,-21,-10,-256,-23,-46,12,20,22,137
-361,-22,-92,-106,-275,-165,-30,-113,-290,-15,-26,-11,-277,-26,-47,8,19,15,131
-368,-23,-87,-104,-277,-173,-24,-107,-307,-11,-27,-11,-289,-28,-45,8,15,5,121
-367,-23,-80,-102,-273,-180,-17,-103,-314,-8,-27,-9,-296,-29,-44,10,7,-7,109
-363,-23,-73,-103,-263,-186,-9,-104,-312,-8,-28,-6,-298,-29,-42,15,-5,-20,98
-354,-22,-71,-101,-248,-191,-4,-105,-303,-13,-29,0,-297,-30,-39,21,-16,-32,89
-339,-21,-74,-97,-227,-193,-3,-108,-291,-17,-30,6,-292,-32,-35,26,-25,-42,82
-319,-21,-77,-96,-203,-195,-4,-111,-281,-20,-29,11,-282,-37,-28,28,-30,-46,81
-296,-21,-78,-99,-177,-196,-5,-115,-272,-23,-24,14,-269,-43,-20,26,-30,-46,84
-270,-19,-78,-103,-153,-193,-8,-116,-262,-24,-15,15,-253,-47,-12,25,-29,-44,87
-243,-17,-76,-109,-131,-185,-11,-118,-250,-24,-4,14,-236,-47,-8,26,-26,-42,91
-218,-13,-71,-116,-113,-175,-11,-119,-235,-25,7,12,-218,-44,-7,29,-21,-36,97
-196,-6,-68,-122,-100,-164,-9,-119,-215,-26,13,12,-199,-40,-12,34,-15,-30,104
-175,1,-67,-122,-89,-153,-4,-117,-191,-28,14,13,-178,-33,-20,41,-10,-26,106
-154,7,-67,-117,-78,-144,3,-114,-163,-28,12,13,-156,-25,-32,46,-5,-22,108
-136,15,-69,-112,-66,-136,11,-111,-134,-27,8,8,-133,-16,-44,47,2,-14,112
-120,26,-72,-108,-53,-131,19,-109,-106,-25,4,2,-111,-7,-52,44,8,-9,117
-103,37,-76,-107,-39,-127,26,-110,-80,-24,2,-1,-91,2,-52,40,15,-9,124
-83,45,-79,-109,-24,-123,33,-113,-56,-22,7,-3,-72,8,-46,36,22,-11,134
-62,50,-78,-115,-7,-119,41,-119,-35,-21,15,-2,-52,11,-33,32,29,-14,148
-40,49,-73,-126,9,-117,48,-130,-17,-18,23,2,-33,13,-19,28,34,-17,163
-14,43,-65,-141,27,-113,54,-145,-5,-15,28,8,-18,14,-6,26,37,-16,182
14,35,-58,-156,46,-107,57,-161,4,-11,31,11,-7,16,1,24,39,-11,199
38,32,-54,-167,64,-100,59,-175,16,-10,30,13,3,22,1,24,37,-5,212
57,33,-54,-174,80,-93,59,-185,30,-10,27,14,13,27,-4,24,34,1,219
76,35,-56,-176,94,-86,59,-188,45,-12,23,13,25,30,-10,24,31,4,219
91,40,-58,-174,107,-81,59,-185,63,-14,22,9,39,32,-15,25,28,3,212
101,49,-60,-171,117,-78,59,-179,82,-17,22,5,55,32,-19,24,24,1,202
107,59,-61,-168,124,-77,60,-171,100,-18,19,0,68,33,-21,22,23,1,194
112,69,-61,-169,130,-76,63,-166,112,-16,14,-1,77,34,-21,20,24,1,190
116,80,-60,-171,136,-74,66,-163,119,-12,11,1,83,39,-22,20,27,1,189
119,91,-60,-170,141,-73,72,-160,121,-9,11,7,86,44,-20,22,29,-1,189
124,96,-58,-168,148,-75,80,-159,119,-6,14,16,88,45,-17,28,32,-2,191
133,94,-54,-165,159,-77,86,-160,114,-3,15,24,90,41,-15,35,32,-5,192
144,87,-52,-160,171,-78,86,-159,108,0,15,29,90,35,-13,40,31,-8,190
156,77,-52,-154,180,-77,82,-158,101,1,14,31,88,28,-10,40,30,-9,187
164,68,-53,-151,184,-76,76,-157,95,0,12,30,81,26,-8,38,29,-9,186
166,62,-55,-149,182,-74,70,-154,90,1,9,27,71,30,-9,35,29,-9,183
163,62,-57,-145,175,-75,69,-147,85,2,10,22,60,37,-12,33,31,-6,178
155,66,-58,-140,167,-78,71,-139,83,1,13,17,51,45,-15,33,35,-4,173
144,73,-58,-136,158,-81,75,-130,82,-2,16,14,44,50,-18,35,37,-2,166
135,80,-57,-133,150,-81,78,-122,82,-3,15,12,42,47,-18,36,37,-1,159
131,84,-57,-132,143,-75,75,-117,82,-3,13,10,43,40,-17,36,36,-1,152
134,85,-58,-133,139,-66,70,-115,82,-3,12,8,46,31,-13,35,32,-5,146
139,84,-58,-134,137,-55,66,-116,79,-2,14,5,45,24,-4,31,24,-12,140
147,82,-58,-137,138,-47,64,-121,73,1,18,2,42,21,5,26,16,-19,136
155,77,-56,-138,142,-43,62,-123,65,4,22,1,36,23,11,23,9,-26,132
162,70,-53,-136,148,-42,59,-121,59,5,25,2,28,28,13,21,4,-30,125
166,62,-48,-133,153,-44,55,-117,53,4,22,6,22,32,15,17,1,-30,118
164,56,-44,-130,155,-45,49,-114,48,2,15,12,17,32,12,16,1,-25,114
156,52,-41,-129,152,-48,44,-111,45,-1,5,19,14,32,4,18,3,-16,113
144,49,-39,-128,148,-52,42,-112,43,-5,-4,25,11,32,-7,23,6,-6,117
133,50,-39,-130,145,-58,42,-116,41,-8,-11,28,9,31,-19,29,10,3,125
122,53,-42,-134,140,-61,42,-121,40,-10,-15,29,8,29,-28,35,14,7,134
115,58,-46,-141,135,-62,41,-127,39,-10,-14,26,8,28,-33,38,18,7,145
114,61,-49,-155,131,-60,38,-137,38,-7,-7,21,11,25,-30,38,22,2,158
117,65,-51,-175,128,-55,33,-150,37,-2,3,15,15,22,-19,35,23,-10,172
119,70,-52,-199,124,-49,31,-168,38,4,14,9,20,19,-4,32,19,-25,187
119,74,-51,-224,119,-42,31,-190,40,12,23,5,24,20,5,31,14,-39,203
117,78,-50,-244,114,-38,35,-211,44,18,26,3,25,26,7,33,6,-51,216
113,80,-47,-254,111,-35,40,-224,48,20,24,4,24,34,2,36,-1,-59,222
111,79,-44,-252,111,-35,48,-230,52,18,17,7,21,42,-6,38,-7,-57,222
113,76,-41,-246,114,-35,56,-233,54,13,9,10,19,44,-13,37,-11,-46,222
118,70,-36,-240,118,-35,64,-236,52,7,3,15,17,40,-15,35,-14,-34,221
124,62,-27,-239,122,-34,70,-238,48,0,1,20,16,33,-12,34,-19,-24,219
131,54,-19,-239,124,-30,73,-239,44,-2,1,24,15,25,-7,33,-23,-19,216
135,49,-13,-237,123,-25,72,-237,41,-1,2,25,16,20,-3,34,-27,-18,209
132,49,-12,-231,118,-22,69,-227,40,2,1,27,16,19,-2,36,-30,-23,197
126,54,-15,-223,114,-21,65,-215,39,5,0,29,14,24,-2,37,-31,-31,184
120,64,-25,-214,112,-24,61,-205,37,10,-3,30,11,31,-2,34,-30,-37,175
115,76,-37,-209,113,-28,59,-199,35,13,-5,28,9,38,-2,28,-30,-39,169
112,89,-49,-209,116,-32,56,-197,35,15,-4,24,6,44,-2,23,-29,-39,167
113,100,-59,-214,119,-36,52,-196,36,16,-1,19,3,48,-4,22,-26,-38,169
114,109,-68,-217,123,-41,49,-193,38,16,-1,13,0,49,-7,23,-21,-35,172
114,116,-75,-217,125,-47,49,-190,42,13,-3,7,0,47,-12,24,-18,-31,171
114,122,-84,-213,125,-52,53,-187,47,9,-8,5,1,42,-16,26,-17,-29,169
114,127,-93,-207,123,-55,58,-184,50,6,-15,8,1,38,-16,27,-19,-33,165
115,130,-102,-201,119,-58,64,-183,48,5,-19,14,1,33,-11,24,-22,-40,160
117,131,-109,-198,112,-58,69,-181,43,6,-20,17,0,27,-2,19,-24,-45,157
117,131,-115,-197,102,-58,71,-178,36,8,-19,18,-1,22,6,17,-22,-49,155
114,131,-119,-196,92,-58,70,-173,30,12,-15,18,0,17,13,16,-17,-49,155
108,131,-121,-194,85,-59,66,-167,26,16,-12,16,2,13,17,14,-11,-46,156
97,134,-123,-190,79,-59,61,-163,25,18,-9,13,6,11,17,14,-6,-40,156
85,141,-127,-187,75,-57,58,-164,27,19,-7,12,11,13,12,15,-7,-37,156
74,153,-136,-184,73,-53,55,-167,30,18,-4,13,14,17,8,17,-11,-37,155
67,171,-149,-183,71,-48,53,-170,32,17,-2,15,14,23,4,20,-17,-40,152
61,195,-165,-183,68,-43,53,-171,31,17,0,16,11,29,-2,25,-23,-43,148
59,218,-182,-183,66,-40,55,-169,29,17,1,15,4,36,-8,29,-28,-45,140
62,238,-197,-180,65,-37,58,-162,27,18,2,12,-2,42,-13,31,-33,-46,129
67,253,-208,-175,67,-37,60,-154,24,20,4,8,-6,46,-17,32,-38,-47,116
71,265,-218,-170,70,-38,62,-145,21,21,6,5,-9,47,-18,33,-39,-46,106
75,272,-228,-164,73,-42,62,-139,18,21,9,4,-8,45,-16,31,-38,-42,101
77,276,-239,-161,75,-48,63,-137,17,21,9,5,-5,41,-13,28,-36,-38,100
73,279,-248,-160,73,-54,62,-138,15,23,8,6,-3,37,-6,24,-33,-33,105
64,280,-254,-162,66,-57,60,-141,14,27,6,4,-2,35,3,15,-28,-27,113
54,279,-253,-164,58,-57,58,-143,12,33,5,-2,-1,36,10,4,-25,-22,118
47,273,-244,-167,51,-54,58,-145,11,38,5,-9,-2,40,12,-4,-27,-22,118
44,266,-231,-167,45,-49,60,-144,11,43,6,-13,-5,49,10,-7,-30,-25,114
46,260,-219,-164,42,-43,62,-138,13,47,5,-14,-5,55,6,-6,-30,-28,108
49,254,-211,-157,43,-41,62,-128,15,49,2,-12,-3,58,-1,0,-27,-31,101
50,248,-209,-149,44,-43,61,-121,17,48,-4,-8,-1,56,-9,7,-23,-31,97
47,242,-213,-138,43,-46,57,-116,21,46,-11,-6,2,50,-15,13,-16,-26,100
39,234,-219,-126,39,-50,52,-113,25,41,-19,-6,3,39,-15,14,-5,-16,107
30,224,-225,-115,34,-55,48,-113,30,31,-23,-8,3,28,-13,12,4,-4,116
22,213,-226,-109,28,-58,47,-116,36,17,-25,-7,1,21,-11,9,8,3,124
17,203,-223,-106,23,-59,47,-120,41,2,-26,-4,-2,17,-9,7,8,7,127
15,197,-216,-104,21,-59,48,-119,45,-7,-27,-1,-6,18,-7,5,5,8,123
15,194,-206,-106,24,-60,48,-116,48,-9,-30,2,-6,19,-6,5,-1,6,114
18,194,-196,-112,29,-59,48,-114,50,-3,-35,6,-3,20,-6,7,-7,1,106
21,195,-187,-118,34,-57,47,-112,50,6,-40,9,1,19,-6,10,-11,-2,101
25,195,-180,-121,36,-54,46,-110,47,16,-45,11,3,20,-7,14,-12,-5,97
29,192,-173,-123,37,-49,46,-109,44,23,-45,13,3,23,-7,16,-16,-10,93
33,186,-166,-125,35,-44,48,-111,41,25,-40,13,0,29,-6,16,-21,-17,89
36,178,-157,-125,33,-41,50,-112,36,24,-31,11,-6,34,-3,15,-27,-23,84
38,167,-150,-122,33,-41,51,-111,28,23,-23,8,-14,38,-1,13,-33,-28,77
41,155,-144,-117,37,-45,52,-110,19,23,-17,5,-20,37,2,10,-40,-30,69
44,143,-141,-113,42,-52,54,-111,10,23,-12,2,-23,33,5,9,-45,-31,65
47,134,-140,-110,48,-58,54,-112,2,22,-9,3,-25,28,6,8,-48,-31,64
48,128,-139,-105,53,-63,53,-111,-4,18,-8,7,-28,26,7,7,-47,-31,63
47,129,-137,-102,56,-64,51,-107,-5,12,-8,10,-30,29,7,4,-44,-31,62
45,134,-132,-102,59,-63,50,-101,-1,9,-8,12,-30,35,8,0,-40,-32,61
41,144,-126,-103,61,-59,48,-94,8,7,-8,13,-29,41,10,-3,-33,-32,60
38,153,-120,-103,61,-54,46,-85,18,6,-7,11,-25,47,12,-5,-25,-32,60
37,160,-117,-103,61,-47,44,-80,28,6,-5,7,-19,51,11,-7,-19,-30,61
40,160,-116,-102,60,-42,44,-79,36,5,-2,1,-13,51,9,-8,-14,-27,65
47,153,-114,-102,60,-39,43,-80,40,2,3,-3,-7,48,10,-9,-8,-24,71
57,141,-112,-104,62,-37,39,-82,43,-4,7,-5,-3,45,11,-12,-2,-21,80
66,130,-110,-108,65,-35,33,-86,45,-9,8,-3,1,44,11,-15,5,-17,90
70,120,-106,-112,66,-33,27,-89,48,-14,6,2,7,44,10,-18,11,-14,99
69,112,-99,-114,66,-28,21,-90,50,-17,3,10,11,47,9,-21,15,-13,105
65,106,-92,-111,61,-19,14,-89,52,-20,1,17,14,51,8,-23,17,-12,105
59,100,-86,-102,55,-10,11,-84,54,-21,0,22,14,54,9,-22,15,-15,98
53,93,-78,-91,47,-5,13,-77,52,-20,1,23,10,55,12,-21,9,-20,86
50,85,-69,-81,41,-4,19,-71,47,-17,3,20,1,58,16,-21,1,-27,71
50,77,-61,-76,38,-6,28,-69,43,-11,4,15,-9,61,21,-22,-9,-36,60
51,73,-57,-76,38,-12,36,-71,39,-4,4,9,-17,65,24,-24,-17,-44,54
50,73,-56,-78,40,-18,42,-74,35,4,3,4,-20,67,25,-27,-20,-47,54
48,76,-57,-81,40,-21,45,-78,32,10,-1,1,-19,67,25,-31,-19,-43,59
46,82,-63,-82,41,-21,44,-80,31,14,-5,0,-17,64,25,-34,-15,-34,64
47,90,-70,-81,41,-20,42,-78,32,17,-9,0,-15,62,25,-32,-10,-25,68
48,97,-77,-81,40,-19,40,-74,36,19,-13,0,-14,63,22,-28,-4,-18,70
50,102,-81,-81,38,-16,38,-71,39,22,-17,1,-15,66,16,-22,-1,-15,70
52,103,-80,-87,36,-12,36,-72,40,24,-18,2,-17,70,10,-14,-1,-19,70
54,101,-74,-97,35,-8,31,-75,41,26,-18,6,-17,72,6,-6,-2,-26,72
54,98,-65,-107,37,-7,29,-79,41,25,-16,11,-15,70,7,-1,-5,-32,74
52,94,-56,-116,39,-6,29,-88,39,21,-14,19,-14,66,13,0,-11,-36,76
50,91,-48,-122,43,-5,30,-97,37,14,-14,29,-15,63,21,-1,-20,-38,77
48,89,-43,-121,49,-6,32,-102,34,8,-14,39,-22,66,26,-2,-25,-36,76
47,87,-42,-115,55,-6,30,-103,31,3,-15,45,-32,73,28,-4,-26,-31,76
46,84,-44,-107,58,-4,24,-100,28,0,-15,48,-42,81,28,-5,-23,-25,76
44,79,-44,-101,58,-3,16,-94,26,0,-15,45,-50,85,23,-2,-16,-21,77
44,71,-44,-99,57,-5,8,-87,24,2,-15,37,-54,87,15,1,-8,-18,79
48,58,-41,-102,55,-10,4,-85,23,5,-15,25,-53,83,7,2,-4,-16,80
53,47,-39,-108,52,-18,4,-86,22,8,-17,14,-49,77,-1,1,-4,-17,81
55,39,-37,-112,49,-25,9,-87,21,11,-20,6,-46,71,-7,1,-6,-19,80
56,35,-36,-111,45,-29,15,-87,19,12,-22,4,-46,69,-10,0,-7,-18,80
57,35,-38,-105,42,-29,21,-85,19,13,-23,5,-46,69,-11,2,-7,-17,78
58,38,-41,-97,41,-26,28,-84,23,13,-21,8,-44,71,-8,4,-7,-17,76
62,44,-42,-91,42,-22,37,-84,29,13,-15,11,-40,72,-1,7,-8,-18,75
71,49,-40,-87,49,-17,44,-82,34,12,-8,11,-37,73,6,8,-10,-20,72
85,52,-38,-86,59,-14,48,-80,37,11,-1,8,-36,73,12,7,-14,-23,65
100,52,-34,-89,68,-12,48,-75,35,9,7,0,-38,71,15,3,-18,-24,57
113,49,-30,-90,74,-9,45,-69,30,5,15,-12,-43,69,14,0,-19,-22,50
118,44,-31,-88,75,-9,38,-61,24,2,20,-24,-49,67,9,-4,-16,-18,44
116,37,-32,-83,71,-11,32,-54,19,2,23,-37,-52,65,2,-8,-12,-14,42
106,30,-32,-80,63,-15,27,-51,15,3,25,-47,-51,64,-4,-12,-7,-11,44
90,28,-30,-78,54,-18,26,-52,14,5,27,-51,-48,64,-7,-14,-2,-11,49
73,33,-30,-76,47,-20,27,-54,15,11,28,-51,-44,67,-7,-14,2,-11,55
58,43,-28,-74,41,-17,30,-55,17,16,29,-49,-43,73,-4,-12,5,-11,60
47,55,-24,-72,37,-11,34,-55,20,18,32,-46,-46,80,0,-9,10,-8,64
45,62,-22,-67,36,-3,39,-54,22,17,36,-44,-49,84,4,-8,15,0,69
50,64,-22,-60,38,6,43,-53,23,16,36,-43,-50,82,8,-8,21,9,74
57,60,-20,-55,40,11,44,-54,22,13,34,-41,-51,76,13,-10,25,18,78
63,50,-19,-54,42,12,44,-58,17,11,29,-38,-49,66,18,-15,29,24,86
65,38,-17,-57,43,11,40,-64,11,12,22,-32,-45,55,19,-16,32,28,96
64,30,-15,-64,43,7,34,-70,7,15,16,-29,-39,48,13,-13,36,30,106
59,26,-14,-74,43,2,27,-74,4,18,10,-29,-38,45,3,-7,42,36,116
56,26,-13,-85,44,-4,22,-78,4,18,7,-32,-41,46,-11,1,50,47,127
57,27,-14,-94,45,-10,19,-77,6,14,6,-37,-47,50,-29,15,57,59,134
63,29,-15,-99,47,-17,21,-73,9,8,7,-40,-54,54,-50,34,60,65,132
72,27,-18,-100,47,-21,23,-68,11,1,8,-43,-62,57,-69,52,60,68,127
81,24,-23,-99,45,-23,25,-64,14,-5,10,-43,-65,59,-83,66,60,65,123
86,20,-28,-95,42,-24,25,-60,21,-10,11,-41,-63,59,-91,76,64,60,123
85,16,-31,-88,39,-23,22,-55,29,-14,7,-37,-58,58,-94,80,72,55,127
81,13,-32,-80,35,-21,19,-51,36,-14,1,-34,-52,56,-94,79,83,55,133
74,13,-34,-70,32,-20,18,-47,40,-12,-5,-33,-49,53,-90,76,92,56,139
67,15,-33,-60,32,-20,20,-43,36,-9,-9,-32,-51,50,-85,73,96,56,139
58,18,-31,-53,30,-22,25,-40,23,-4,-6,-31,-56,46,-81,73,93,52,133
49,19,-28,-48,26,-27,32,-40,4,3,2,-32,-62,42,-76,73,85,45,124
36,18,-27,-48,21,-36,39,-44,-16,9,11,-35,-69,40,-71,70,74,39,118
19,19,-28,-50,12,-47,45,-51,-29,10,19,-37,-75,39,-67,65,66,37,117
1,21,-33,-53,0,-57,49,-57,-34,4,24,-35,-77,40,-64,60,62,35,118
-15,23,-40,-53,-13,-64,51,-59,-32,-4,23,-30,-78,42,-63,57,59,32,118
-28,26,-48,-50,-24,-68,50,-57,-27,-11,17,-24,-79,42,-63,55,57,29,113
-36,30,-53,-46,-33,-69,46,-50,-21,-14,11,-18,-77,39,-60,55,58,26,108
-39,32,-56,-44,-36,-69,39,-42,-16,-13,6,-13,-71,35,-55,55,62,23,103
-41,33,-57,-43,-35,-72,32,-34,-14,-6,5,-11,-66,34,-50,56,68,22,102
-44,33,-56,-45,-32,-79,28,-30,-13,2,6,-13,-63,37,-50,58,74,23,103
-49,31,-53,-50,-29,-89,25,-29,-12,6,9,-17,-62,44,-54,59,78,27,106
-57,25,-50,-58,-30,-102,24,-31,-16,6,12,-21,-68,48,-57,58,79,30,110
-72,18,-47,-65,-40,-114,25,-36,-26,0,12,-23,-81,47,-61,58,75,31,111
-93,8,-46,-66,-59,-124,27,-41,-40,-11,9,-26,-100,40,-64,55,68,33,108
-118,-2,-46,-63,-84,-132,29,-42,-57,-24,4,-30,-122,28,-64,50,60,37,102
-143,-10,-50,-55,-110,-137,32,-43,-74,-34,0,-35,-145,17,-60,44,54,40,96
-163,-13,-57,-44,-133,-142,38,-41,-89,-41,1,-39,-164,11,-56,41,50,38,91
-176,-11,-64,-34,-148,-146,46,-36,-98,-42,5,-41,-175,12,-54,40,47,32,83
-181,-8,-66,-28,-153,-152,52,-30,-103,-38,9,-39,-178,17,-51,40,46,21,76
-180,-8,-64,-27,-148,-160,55,-27,-106,-33,13,-32,-177,25,-48,41,48,9,74
-174,-9,-59,-31,-138,-164,57,-28,-106,-30,16,-24,-171,29,-43,43,48,-1,76
-164,-11,-54,-38,-125,-165,57,-34,-104,-27,19,-18,-163,28,-41,45,47,-5,81
-152,-10,-51,-47,-111,-163,56,-42,-101,-24,20,-15,-154,24,-39,49,46,-5,88
-137,-5,-52,-55,-97,-158,54,-48,-95,-21,21,-16,-147,22,-39,53,46,-5,93
-118,5,-55,-60,-82,-151,51,-46,-83,-18,22,-20,-139,24,-39,56,48,-6,94
-98,17,-57,-64,-68,-143,50,-40,-66,-14,23,-26,-127,28,-39,56,52,-6,91
-78,28,-58,-65,-54,-137,50,-32,-46,-10,22,-28,-113,36,-38,51,58,-8,90
-60,34,-55,-65,-39,-131,51,-26,-26,-10,20,-27,-100,45,-34,46,64,-9,89
-43,34,-49,-65,-26,-125,54,-25,-7,-12,18,-24,-85,50,-29,39,67,-8,92
-25,30,-42,-69,-14,-118,59,-33,9,-10,15,-21,-67,49,-22,32,68,-4,100
-6,25,-38,-73,-1,-113,66,-43,22,-7,10,-15,-48,45,-16,29,68,0,111
14,20,-36,-72,14,-110,71,-48,33,-3,5,-7,-31,41,-11,30,70,5,118
34,15,-34,-65,30,-107,74,-46,43,0,0,2,-17,39,-8,32,72,8,118
52,12,-31,-54,44,-102,76,-40,51,3,0,11,-5,41,-7,35,74,9,113
66,10,-27,-44,56,-94,76,-34,57,4,2,20,4,46,-6,39,74,8,107
75,11,-22,-39,64,-86,76,-30,62,2,8,27,10,50,-4,42,72,6,101
78,14,-17,-41,69,-80,76,-31,66,0,12,30,16,54,-3,43,68,4,98
80,18,-14,-47,72,-76,77,-35,70,0,13,29,21,56,-5,40,65,6,100
81,21,-16,-54,72,-77,79,-42,74,1,10,25,26,55,-7,37,64,9,105
83,24,-21,-61,72,-81,80,-46,78,3,5,18,29,53,-10,31,65,13,111
85,26,-27,-67,70,-85,78,-47,79,5,0,8,28,53,-12,24,70,19,117
87,26,-32,-72,67,-87,75,-46,76,9,-2,-3,23,55,-16,18,76,25,122
88,26,-33,-75,64,-86,71,-42,69,14,0,-15,15,58,-19,14,81,28,123
87,26,-30,-76,61,-83,67,-37,60,18,5,-24,7,60,-19,12,82,29,119
85,26,-25,-73,60,-80,64,-31,47,23,12,-31,-2,61,-18,10,80,28,111
83,25,-21,-67,61,-76,64,-28,34,27,18,-32,-10,62,-14,10,74,23,101
81,26,-20,-61,62,-75,67,-28,21,30,23,-28,-19,64,-10,11,64,13,92
80,27,-22,-57,62,-73,72,-32,10,31,27,-20,-25,65,-4,12,55,4,87
79,28,-23,-58,61,-71,75,-39,3,32,30,-13,-28,63,4,13,50,-3,89
75,29,-21,-61,58,-69,77,-46,1,31,30,-6,-30,62,11,12,49,-7,94
67,28,-16,-64,54,-67,77,-49,2,31,26,-1,-30,62,17,8,49,-7,98
56,26,-8,-63,50,-66,74,-47,6,31,18,1,-28,61,21,2,53,-2,99
43,24,-2,-55,46,-69,71,-39,8,33,8,3,-26,58,24,-4,60,6,98
31,26,-1,-47,42,-74,69,-29,7,34,-3,4,-28,56,23,-9,67,14,95
26,27,-3,-40,41,-81,69,-19,1,34,-13,7,-34,54,18,-10,72,19,91
28,26,-9,-36,39,-88,71,-13,-6,32,-22,10,-42,51,12,-7,75,20,88
33,25,-17,-36,34,-91,72,-10,-13,28,-28,14,-51,48,4,-1,75,18,84
38,24,-21,-40,29,-92,72,-9,-16,24,-32,16,-56,45,-1,3,72,12,80
40,23,-22,-46,24,-90,71,-9,-15,21,-33,18,-54,42,-3,7,67,5,76
42,22,-21,-50,21,-88,68,-7,-15,24,-31,18,-49,38,-3,10,66,0,73
41,23,-21,-51,20,-89,66,-5,-17,28,-25,15,-42,31,0,12,68,-1,72
41,26,-21,-52,23,-89,63,-3,-22,33,-18,12,-36,22,6,11,73,2,75
41,30,-20,-53,27,-89,62,-3,-32,37,-12,8,-34,12,12,11,79,8,81
41,32,-20,-55,32,-88,62,-6,-43,39,-7,6,-37,5,16,11,81,14,87
40,35,-19,-58,35,-87,64,-14,-52,37,-5,7,-44,2,18,10,78,17,91
37,38,-20,-61,37,-87,67,-22,-57,34,-6,8,-51,5,17,7,69,17,91
34,41,-20,-64,39,-89,71,-29,-56,29,-8,5,-57,12,14,2,58,15,87
34,45,-22,-66,40,-91,75,-35,-50,24,-12,3,-61,21,8,-3,47,13,81
36,46,-25,-65,41,-93,81,-38,-44,21,-19,5,-62,27,4,-6,38,10,75
42,43,-26,-63,41,-92,84,-37,-40,21,-28,10,-62,31,1,-7,34,7,70
48,36,-20,-61,42,-89,85,-34,-37,21,-35,18,-64,36,1,-6,38,7,72
53,26,-11,-58,42,-83,84,-32,-39,24,-39,27,-65,38,4,-4,44,8,76
55,18,-1,-53,43,-77,85,-31,-45,30,-38,34,-66,39,9,-1,47,6,78
53,14,10,-49,44,-72,85,-30,-51,38,-31,35,-68,41,14,2,47,-1,76
49,16,20,-49,47,-66,82,-27,-54,45,-21,26,-69,46,17,2,45,-5,72
44,25,25,-52,48,-58,76,-25,-53,53,-12,11,-67,50,18,-2,40,-9,64
41,36,25,-58,48,-50,69,-22,-48,59,-7,-4,-65,54,18,-6,34,-15,55
42,43,23,-66,47,-45,63,-22,-40,61,-3,-17,-63,60,15,-10,31,-19,52
47,47,19,-77,45,-41,56,-25,-33,58,0,-26,-64,68,10,-14,33,-18,57
53,48,13,-85,43,-39,52,-28,-30,54,0,-28,-68,76,5,-18,37,-16,65
59,47,5,-85,42,-39,54,-31,-32,50,-2,-23,-71,79,1,-17,40,-14,70
66,45,-2,-80,42,-40,60,-34,-37,49,-8,-15,-72,77,-2,-12,42,-11,75
71,45,-7,-75,45,-40,67,-36,-42,51,-14,-8,-70,69,-5,-9,46,-3,81
73,48,-11,-69,48,-41,72,-37,-46,54,-21,-5,-65,60,-5,-8,49,5,86
69,52,-14,-62,49,-43,74,-35,-45,55,-26,-4,-58,49,-2,-9,53,11,88
59,56,-16,-59,48,-47,73,-34,-44,54,-28,-6,-53,40,1,-13,56,15,89
47,61,-17,-63,44,-50,65,-31,-42,51,-29,-9,-53,39,2,-17,59,13,89
34,65,-16,-69,37,-50,54,-26,-39,47,-29,-10,-55,43,2,-19,62,9,88
25,67,-17,-73,29,-49,44,-22,-36,44,-31,-10,-60,47,1,-19,64,4,86
20,68,-18,-75,23,-47,38,-19,-34,42,-31,-8,-65,49,1,-16,65,-1,83
21,67,-18,-78,20,-46,36,-19,-30,41,-29,-8,-67,50,0,-11,64,-6,82
27,62,-16,-80,19,-44,39,-22,-26,39,-24,-10,-66,50,-1,-5,60,-10,81
32,58,-14,-79,19,-42,46,-26,-23,35,-18,-12,-65,49,-1,-1,50,-15,76
31,57,-10,-78,17,-41,55,-31,-22,32,-12,-13,-62,48,0,0,37,-22,67
26,57,-2,-78,14,-41,63,-34,-23,32,-6,-15,-59,48,0,-1,23,-28,57
17,57,7,-76,9,-38,69,-35,-27,33,-1,-18,-57,49,-1,-3,11,-30,46
7,59,13,-72,3,-34,72,-34,-32,35,2,-19,-60,53,1,-8,3,-30,36
-1,62,16,-66,-1,-31,72,-29,-36,36,2,-17,-65,60,2,-11,2,-27,31
-3,63,17,-62,-1,-31,69,-23,-38,38,0,-16,-73,68,1,-13,9,-23,32
1,62,14,-61,3,-31,63,-18,-36,40,-3,-19,-79,73,1,-12,19,-18,37
9,61,7,-61,8,-35,58,-15,-31,41,-6,-23,-81,74,0,-12,29,-15,44
16,61,0,-62,13,-42,54,-11,-26,44,-9,-27,-79,72,0,-11,38,-14,48
20,61,-5,-65,18,-50,50,-8,-21,48,-10,-33,-75,67,1,-11,42,-15,49
20,61,-8,-68,19,-55,46,-6,-18,53,-10,-38,-72,64,7,-12,42,-17,48
17,62,-12,-71,16,-58,44,-6,-14,57,-11,-38,-71,63,13,-12,42,-21,48
11,64,-14,-75,10,-59,43,-7,-11,59,-14,-32,-72,67,17,-10,44,-26,50
7,64,-13,-83,4,-58,41,-12,-8,61,-17,-25,-72,72,19,-7,46,-30,57
7,62,-10,-95,1,-55,40,-22,-5,61,-16,-20,-68,75,16,-4,48,-32,70
12,58,-6,-106,1,-50,41,-33,-4,56,-14,-17,-62,75,9,1,49,-30,82
20,54,-2,-116,6,-46,42,-46,-6,49,-10,-14,-56,71,-1,5,46,-24,92
30,51,3,-125,15,-40,43,-59,-12,42,-5,-13,-53,68,-9,6,41,-16,99
41,51,5,-131,26,-33,44,-72,-18,37,-1,-15,-54,67,-13,3,32,-6,103
47,53,4,-133,35,-28,46,-82,-25,36,1,-17,-58,68,-13,-2,20,0,101
48,57,3,-131,40,-25,49,-88,-32,40,-1,-15,-63,69,-7,-7,6,0,94
47,59,3,-130,42,-24,52,-92,-38,49,-4,-9,-67,70,1,-6,-8,-10,84
46,58,5,-128,45,-25,57,-95,-43,57,-7,2,-68,70,7,0,-21,-25,73
45,56,10,-127,47,-27,60,-96,-48,61,-8,14,-67,67,9,9,-31,-39,65
45,54,14,-129,47,-28,61,-96,-52,62,-9,23,-66,63,9,18,-31,-46,64
45,52,15,-131,46,-29,59,-96,-56,62,-9,25,-66,59,6,24,-24,-45,71
45,51,13,-132,45,-30,54,-93,-57,60,-9,21,-66,57,0,24,-13,-36,80
41,51,8,-133,41,-33,49,-90,-58,59,-9,8,-67,56,-3,15,-1,-23,89
34,51,-1,-131,34,-37,44,-88,-56,58,-11,-8,-68,54,-5,2,8,-9,95
24,52,-10,-126,26,-43,43,-85,-52,55,-14,-19,-67,50,-4,-9,11,0,95
13,52,-16,-122,17,-51,45,-84,-46,52,-18,-25,-66,46,-3,-14,6,1,90
0,53,-19,-119,9,-58,50,-86,-42,48,-22,-28,-67,41,-1,-17,-2,-3,83
-14,53,-19,-116,1,-65,54,-86,-41,43,-24,-28,-72,39,0,-17,-10,-7,76
-26,51,-16,-113,-5,-73,57,-84,-42,36,-26,-25,-80,37,1,-15,-15,-14,68
-32,48,-11,-114,-7,-78,57,-80,-42,31,-27,-21,-88,37,2,-11,-18,-23,61
-34,46,-7,-117,-7,-82,52,-73,-40,26,-26,-17,-92,40,2,-7,-19,-35,54
-33,44,-3,-119,-7,-81,42,-66,-37,21,-25,-12,-92,44,-1,-3,-16,-45,50
-34,42,-2,-123,-8,-78,31,-62,-33,18,-23,-9,-87,47,-6,0,-12,-54,50
-39,40,-2,-128,-13,-75,19,-61,-28,18,-21,-8,-81,49,-11,4,-7,-59,53
-51,36,-3,-131,-22,-74,9,-62,-26,15,-19,-9,-78,49,-14,5,-2,-58,59
-68,29,-4,-132,-34,-80,4,-65,-29,10,-17,-14,-81,47,-16,-1,2,-48,67
-89,21,-5,-132,-49,-92,6,-69,-37,3,-17,-20,-89,44,-16,-10,4,-34,73
-114,16,-8,-132,-68,-107,12,-73,-50,-7,-18,-23,-105,40,-15,-18,2,-23,75
-142,14,-10,-132,-91,-120,17,-76,-68,-18,-20,-22,-125,34,-14,-23,-2,-18,74
-173,12,-11,-132,-115,-131,21,-80,-92,-24,-22,-20,-147,31,-17,-25,-10,-21,70
-208,12,-12,-132,-141,-137,23,-85,-119,-25,-24,-16,-170,31,-21,-25,-19,-31,66
-243,15,-10,-130,-164,-138,22,-88,-145,-21,-27,-14,-190,31,-24,-24,-28,-43,59
-272,18,-6,-126,-182,-137,22,-88,-168,-14,-29,-13,-205,31,-23,-27,-37,-54,50
-295,22,1,-122,-196,-137,24,-85,-186,-2,-31,-14,-213,30,-18,-33,-45,-62,40
-312,27,8,-116,-208,-136,30,-79,-201,10,-32,-13,-214,25,-8,-39,-48,-67,30
-321,31,15,-108,-217,-133,36,-70,-212,17,-30,-9,-212,18,4,-43,-49,-69,20
-324,35,20,-103,-222,-129,40,-61,-216,18,-25,-5,-208,11,11,-42,-48,-70,13
-319,37,22,-101,-224,-124,40,-53,-215,16,-21,-1,-201,5,12,-36,-43,-68,10
-307,37,20,-102,-222,-118,36,-49,-210,14,-20,2,-193,1,5,-28,-37,-63,11
-291,37,16,-105,-213,-115,32,-46,-201,12,-22,2,-183,1,-7,-20,-31,-54,15
-272,38,13,-108,-200,-114,29,-45,-191,12,-27,2,-174,3,-18,-14,-26,-45,18
-254,36,11,-109,-187,-114,29,-43,-183,17,-33,5,-165,4,-24,-10,-20,-39,23
-238,33,11,-108,-175,-113,30,-43,-177,23,-38,9,-157,5,-24,-7,-14,-36,29
-222,30,12,-103,-162,-111,34,-44,-168,27,-39,14,-150,6,-19,-4,-7,-35,36
-206,29,13,-98,-149,-107,36,-43,-156,31,-36,17,-140,9,-11,-3,0,-34,43
-188,31,13,-95,-134,-99,36,-41,-140,36,-31,13,-125,12,-2,-7,9,-29,49
-168,39,12,-95,-118,-90,34,-39,-118,42,-27,5,-105,14,6,-14,18,-21,57
-146,51,11,-100,-100,-80,33,-37,-91,49,-25,-4,-83,21,12,-20,25,-13,62
-122,64,14,-105,-78,-70,33,-34,-64,56,-22,-12,-64,31,15,-25,27,-10,60
-95,77,17,-108,-51,-63,35,-30,-38,61,-18,-17,-47,43,17,-26,24,-10,54
-67,87,22,-110,-21,-58,39,-29,-16,65,-14,-18,-35,56,18,-23,19,-13,48
-41,94,28,-108,8,-51,44,-29,1,65,-5,-17,-26,68,20,-18,14,-17,42
-18,98,33,-104,34,-43,48,-29,14,63,7,-17,-19,78,24,-15,9,-17,38
1,100,37,-98,55,-35,52,-32,25,61,17,-17,-14,85,29,-14,6,-13,38
17,97,41,-92,70,-25,54,-37,34,61,22,-16,-9,89,33,-12,4,-8,40
33,89,45,-85,81,-14,55,-41,42,62,21,-12,-1,89,35,-10,2,-3,43
48,78,49,-78,92,-6,57,-46,51,64,14,-4,11,87,31,-5,-1,0,45
60,67,51,-71,104,-6,59,-50,59,69,3,5,27,81,25,1,-1,2,49
66,58,52,-67,115,-13,61,-54,65,73,-9,11,46,72,18,4,4,8,57
66,55,50,-67,121,-22,63,-57,71,74,-19,15,62,64,10,4,13,16,70
60,61,46,-69,123,-32,66,-61,78,74,-27,16,73,60,5,2,21,25,82
54,71,38,-70,124,-37,68,-62,84,72,-33,16,78,59,3,-1,29,33,91
52,82,30,-69,126,-36,66,-60,88,69,-37,15,77,61,3,-6,36,39,95
54,93,23,-66,127,-30,62,-55,88,66,-38,14,71,64,6,-10,41,42,95
60,101,18,-62,129,-21,55,-47,86,63,-36,14,64,66,12,-14,43,40,90
67,105,16,-59,130,-10,46,-37,82,60,-31,13,57,65,19,-17,44,34,81
70,104,18,-61,126,-1,37,-32,78,58,-24,9,51,64,25,-19,45,30,76
70,100,22,-68,118,9,29,-31,73,55,-17,4,44,63,27,-19,44,27,74
70,95,26,-75,108,16,26,-34,70,51,-11,-1,38,61,28,-17,41,26,74
72,90,27,-82,102,19,25,-40,67,47,-6,-6,30,60,28,-15,37,27,76
74,89,24,-90,98,20,27,-48,62,43,-1,-12,21,60,24,-13,35,33,82
76,90,17,-95,97,17,29,-55,55,38,3,-17,9,61,19,-11,36,42,91
76,93,9,-99,95,12,32,-60,47,34,4,-19,-3,63,15,-8,37,49,96
72,96,6,-101,93,6,35,-61,40,31,3,-18,-15,66,9,-4,37,53,97
64,98,6,-98,90,1,38,-59,33,31,-1,-14,-22,67,3,0,37,54,95
55,99,8,-90,89,-5,41,-52,27,32,-6,-8,-24,64,0,4,41,53,92
49,97,13,-80,89,-12,44,-43,23,35,-13,0,-21,60,-1,7,46,49,89
43,97,19,-69,90,-18,51,-33,18,40,-18,7,-15,56,1,7,52,44,85
39,97,23,-60,89,-21,60,-28,14,48,-23,12,-9,52,3,3,57,44,85
36,97,27,-59,86,-21,67,-31,11,56,-30,13,-4,53,5,-3,62,47,93
33,94,31,-68,80,-19,73,-43,9,62,-35,11,-3,58,5,-11,65,52,108
31,91,33,-84,73,-17,77,-62,9,66,-38,8,-4,63,5,-18,65,56,126
34,89,30,-104,70,-13,78,-85,10,66,-39,6,-5,66,5,-23,66,60,150
42,87,24,-126,72,-10,74,-110,11,64,-38,7,-3,65,6,-23,68,63,178
56,84,16,-147,77,-6,71,-133,13,60,-34,11,-1,64,7,-20,69,63,202
71,83,11,-164,83,1,69,-152,15,55,-31,16,1,63,6,-14,67,59,218
84,82,9,-177,86,9,68,-166,16,50,-27,20,3,61,6,-10,62,55,228
95,80,11,-187,86,17,68,-173,16,45,-21,23,6,60,5,-8,59,51,231
100,78,14,-191,84,21,69,-172,15,40,-12,23,8,57,7,-5,57,45,229
100,79,17,-189,81,22,69,-164,10,38,-2,23,10,50,11,-1,58,39,222
97,81,20,-180,79,21,69,-152,4,38,7,23,12,40,17,2,60,33,211
94,83,21,-168,81,18,70,-140,-4,39,14,25,12,29,26,7,60,27,199
92,85,20,-153,86,14,73,-129,-12,40,19,28,10,20,35,11,58,23,187
91,85,19,-140,92,11,76,-123,-17,39,22,30,6,16,40,12,58,22,180
91,85,17,-132,95,7,78,-120,-19,36,22,30,0,17,40,11,58,26,178
89,84,10,-125,95,1,81,-120,-19,30,22,27,-7,21,34,10,60,33,179
87,81,1,-119,91,-6,83,-118,-18,22,20,22,-11,26,22,10,64,40,182
84,77,-9,-112,85,-11,81,-114,-16,13,17,17,-15,28,8,11,69,47,183
83,72,-16,-103,78,-14,79,-107,-14,6,12,12,-19,27,-5,12,73,52,179
81,65,-18,-93,71,-17,78,-98,-13,2,8,7,-21,24,-13,14,74,53,172
82,56,-15,-85,66,-16,78,-89,-14,4,5,1,-21,18,-15,16,75,52,164
85,48,-10,-77,63,-14,79,-81,-14,12,3,-5,-19,11,-10,15,76,52,157
89,44,-5,-70,61,-14,85,-75,-13,23,1,-10,-15,7,-1,10,76,50,150
91,46,-3,-67,61,-15,92,-72,-10,32,1,-14,-9,5,8,4,73,48,144
90,53,-2,-68,62,-16,99,-73,-7,38,1,-16,-4,5,17,-3,67,45,139
85,64,-3,-72,64,-18,106,-79,-6,40,3,-15,-2,9,24,-9,59,39,137
78,76,-4,-79,66,-22,112,-85,-6,42,4,-11,-3,15,29,-12,52,32,136
72,85,-3,-85,67,-25,113,-86,-7,41,4,-2,-6,22,31,-10,48,24,134
69,89,-2,-86,66,-24,109,-82,-9,39,4,8,-11,27,31,-5,48,16,129
71,90,-6,-78,66,-20,103,-72,-12,35,3,18,-19,31,30,2,50,10,122
79,86,-13,-66,67,-15,95,-61,-15,25,4,28,-29,32,32,6,54,8,114
87,80,-19,-56,68,-10,87,-53,-17,11,6,34,-38,29,36,8,58,8,111
92,73,-22,-53,68,-7,82,-53,-18,-4,10,39,-44,25,38,8,63,10,115
91,67,-22,-54,66,-7,80,-57,-20,-11,11,41,-46,22,39,6,67,14,124
87,61,-19,-56,64,-9,79,-61,-22,-10,8,42,-45,19,39,4,71,17,132
83,57,-13,-59,64,-14,78,-62,-24,-2,1,43,-37,14,38,3,74,18,136
82,54,-7,-59,67,-16,77,-58,-25,10,-8,44,-28,12,35,2,75,17,133
85,55,-6,-55,72,-16,76,-52,-25,22,-15,41,-20,11,30,2,72,13,123
93,58,-8,-49,78,-13,76,-47,-25,30,-17,37,-15,10,28,2,64,6,110
100,62,-11,-45,83,-10,77,-44,-23,32,-13,31,-11,8,28,2,55,1,98
105,64,-13,-43,84,-7,79,-44,-20,27,-5,25,-9,7,25,4,47,-4,90
105,64,-16,-41,81,-5,79,-43,-18,21,4,21,-9,8,20,9,41,-9,84
101,61,-16,-39,76,-7,80,-41,-18,16,13,20,-11,10,16,16,38,-13,79
98,57,-13,-40,72,-10,79,-39,-21,12,18,20,-16,12,14,19,41,-14,80
96,53,-9,-45,70,-12,76,-38,-25,11,22,19,-22,15,15,18,44,-13,81
96,52,-6,-50,69,-9,72,-39,-28,10,25,18,-29,21,20,14,44,-12,82
98,53,-4,-56,70,-4,69,-43,-31,11,28,16,-35,26,27,7,41,-10,84
101,55,-4,-60,74,3,65,-48,-34,12,32,14,-38,28,35,-1,36,-7,84
104,58,-5,-60,77,11,60,-50,-36,12,37,11,-39,27,41,-5,27,-7,77
107,61,-6,-60,79,17,57,-51,-37,13,41,11,-38,25,43,-2,16,-12,66
108,60,-4,-58,80,21,56,-50,-36,16,42,11,-35,22,43,4,6,-18,56
106,57,1,-56,78,22,55,-46,-35,21,40,10,-32,19,42,6,1,-21,47
102,51,8,-53,72,22,57,-43,-34,25,35,8,-30,18,41,5,-1,-21,41
93,47,12,-51,64,19,60,-42,-32,27,29,8,-30,19,41,2,-3,-21,39
82,45,14,-48,57,16,62,-41,-31,28,24,12,-30,20,43,-1,-4,-23,37
70,44,16,-43,51,13,62,-39,-31,25,19,20,-29,18,44,-1,-6,-27,33
60,43,18,-38,48,13,59,-37,-31,19,16,29,-27,13,44,3,-8,-31,28
54,42,20,-33,48,15,54,-34,-31,12,13,38,-26,8,43,7,-8,-33,25
50,41,21,-29,50,19,47,-32,-28,6,11,43,-25,6,40,10,-6,-32,26
48,39,24,-27,53,23,40,-32,-22,0,8,43,-26,10,35,10,0,-25,31
47,38,27,-27,56,27,33,-30,-15,-4,6,37,-27,19,28,4,8,-15,38
47,40,28,-29,59,28,28,-28,-10,-2,3,31,-29,30,24,-3,14,-7,42
48,43,28,-31,63,25,24,-25,-8,2,0,26,-32,40,22,-9,20,-7,44
49,44,29,-35,64,22,21,-19,-8,5,0,25,-35,44,25,-12,24,-11,43
50,39,31,-38,62,16,19,-15,-11,7,1,26,-39,43,30,-12,26,-16,41
53,32,31,-40,58,10,21,-13,-15,9,2,24,-42,40,35,-13,26,-21,39
58,25,30,-41,53,7,26,-14,-17,9,2,20,-45,38,37,-16,21,-23,35
63,21,30,-43,49,9,31,-17,-16,9,3,14,-43,37,34,-18,11,-25,28
67,22,31,-44,45,17,33,-20,-11,12,2,8,-35,37,25,-16,0,-28,19
66,28,31,-45,41,28,32,-22,-6,19,0,6,-25,37,16,-10,-10,-33,11
62,36,29,-46,36,39,28,-23,-4,29,-5,7,-17,36,11,-2,-16,-37,6
55,46,24,-45,31,49,23,-22,-5,37,-10,11,-12,33,10,3,-15,-38,6
50,52,19,-44,24,53,19,-21,-7,40,-15,15,-13,30,10,6,-11,-35,9
48,54,12,-43,20,53,20,-20,-9,37,-18,18,-16,26,12,6,-8,-30,12
53,52,6,-40,19,49,22,-19,-10,29,-20,18,-21,22,13,3,-6,-23,13
59,49,2,-38,22,44,24,-19,-8,18,-20,15,-26,19,12,0,-6,-16,12
62,45,0,-39,27,40,23,-22,-5,6,-18,11,-31,15,11,-1,-10,-11,12
61,39,1,-40,31,38,20,-27,-2,-3,-15,10,-36,13,11,1,-14,-11,13
55,35,3,-40,34,36,16,-33,-3,-8,-13,12,-44,14,12,5,-17,-14,15
46,34,4,-40,34,33,13,-37,-8,-10,-10,14,-53,19,13,8,-21,-19,16
35,34,4,-38,33,28,12,-39,-14,-9,-8,15,-62,27,12,7,-22,-23,16
25,35,4,-37,30,23,11,-36,-20,-6,-6,14,-67,34,11,4,-18,-25,17
17,38,8,-37,27,17,12,-31,-23,0,-6,12,-70,42,10,0,-13,-24,18
10,41,14,-37,25,13,14,-24,-25,8,-4,7,-69,49,9,-5,-7,-20,17
6,44,24,-37,22,13,15,-15,-26,14,-1,2,-65,53,11,-10,-3,-17,12
6,44,36,-38,22,16,16,-6,-30,21,5,0,-59,51,14,-10,-2,-19,3
12,41,48,-41,25,19,17,0,-36,28,11,4,-55,46,19,-4,-6,-27,-7
23,37,55,-43,29,20,19,3,-44,32,18,10,-54,41,23,4,-11,-38,-15
35,32,53,-46,33,19,20,3,-49,31,22,16,-54,37,27,10,-13,-48,-16
42,28,46,-48,36,13,21,-3,-52,27,21,22,-54,33,29,11,-13,-52,-10
41,26,36,-49,37,4,24,-11,-47,19,15,28,-52,29,30,7,-11,-51,0
34,27,27,-47,35,-8,29,-16,-36,6,6,35,-46,27,31,0,-6,-46,9
22,29,21,-42,34,-21,35,-17,-22,-9,-2,40,-39,23,30,-8,-1,-39,16
11,30,19,-36,32,-32,41,-16,-11,-23,-8,45,-33,17,30,-11,5,-34,21
5,29,19,-30,31,-38,45,-13,-6,-32,-11,49,-33,11,32,-9,9,-32,22
6,28,17,-25,30,-39,44,-10,-6,-37,-10,50,-36,7,31,-4,13,-32,22
11,25,12,-22,31,-36,41,-10,-12,-37,-5,46,-41,5,27,2,14,-31,24
18,21,6,-23,31,-30,34,-13,-22,-32,1,39,-45,4,21,6,14,-28,26
23,18,1,-23,31,-22,25,-14,-33,-22,3,32,-47,4,16,7,15,-22,28
26,15,-1,-25,30,-17,15,-14,-42,-13,2,26,-45,4,10,5,16,-15,30
26,13,0,-29,32,-14,8,-17,-46,-5,-2,22,-42,3,6,2,15,-9,31
25,12,5,-36,36,-12,5,-22,-46,-1,-7,22,-40,2,6,0,11,-9,32
25,13,12,-44,39,-9,4,-28,-45,2,-11,22,-39,1,7,0,3,-13,31
27,16,18,-52,43,-5,6,-35,-42,4,-12,20,-38,-1,10,0,-7,-18,28
30,23,23,-61,48,-1,9,-42,-39,7,-10,16,-38,-1,15,-3,-15,-24,26
32,33,25,-69,51,2,10,-43,-35,9,-5,7,-39,2,20,-7,-17,-26,26
32,44,24,-76,51,7,7,-41,-32,11,-1,-3,-41,7,23,-13,-13,-24,27
32,53,22,-83,49,10,2,-37,-30,13,0,-9,-46,13,26,-20,-7,-21,30
31,57,19,-88,47,9,-1,-36,-29,15,-4,-13,-51,19,27,-27,-5,-18,31
29,55,14,-90,43,6,-2,-39,-28,15,-10,-17,-55,22,25,-31,-8,-18,30
26,48,8,-89,36,3,-1,-45,-28,16,-15,-18,-56,21,23,-33,-14,-22,30
23,37,2,-84,28,-1,2,-52,-28,16,-20,-16,-56,19,20,-31,-21,-28,30
19,25,-4,-76,19,-8,8,-55,-26,15,-24,-12,-56,23,13,-27,-21,-32,33
14,16,-8,-68,11,-17,15,-55,-25,13,-26,-6,-57,30,3,-20,-13,-31,41
6,10,-7,-64,2,-26,22,-53,-28,12,-27,3,-59,37,-6,-12,-1,-28,52
-5,6,-2,-62,-6,-36,30,-51,-34,12,-29,12,-61,41,-12,-7,11,-22,62
-19,5,5,-64,-15,-46,38,-50,-42,15,-31,14,-63,38,-12,-7,17,-16,67
-36,9,11,-67,-25,-52,44,-51,-51,18,-29,9,-66,28,-6,-9,16,-14,66
-52,16,12,-73,-36,-56,49,-53,-59,19,-22,-1,-69,15,5,-13,8,-16,61
-65,23,9,-78,-47,-58,51,-56,-63,18,-13,-14,-74,4,15,-17,-2,-21,54
-72,29,4,-82,-56,-60,52,-56,-62,15,-5,-23,-80,1,20,-16,-9,-28,47
-75,33,1,-86,-63,-62,51,-53,-57,12,0,-26,-84,5,20,-12,-11,-33,42
-76,34,-1,-88,-68,-64,50,-50,-48,6,5,-28,-83,10,18,-10,-9,-33,41
-77,34,-3,-87,-71,-65,49,-47,-35,0,8,-27,-76,16,16,-11,-6,-30,41
-80,36,-6,-82,-71,-65,49,-44,-22,-6,9,-23,-66,21,15,-13,-4,-27,39
-85,40,-11,-76,-71,-65,47,-43,-13,-11,9,-19,-58,26,13,-16,-5,-24,37
-94,43,-17,-71,-72,-66,43,-45,-9,-16,8,-15,-53,28,10,-18,-7,-22,37
-106,43,-22,-67,-73,-70,38,-47,-12,-19,6,-9,-50,27,9,-19,-8,-23,38
-119,37,-24,-68,-77,-78,32,-51,-22,-21,2,-2,-52,20,10,-21,-8,-25,42
-136,26,-22,-72,-86,-88,27,-58,-38,-19,-3,0,-57,10,11,-24,-10,-28,48
-157,11,-19,-76,-100,-100,25,-67,-56,-16,-6,-3,-66,0,11,-27,-13,-30,53
-178,-3,-15,-77,-117,-110,28,-74,-74,-12,-7,-11,-77,-7,11,-32,-19,-31,55
-196,-11,-12,-77,-132,-117,31,-79,-87,-8,-6,-23,-89,-8,10,-36,-27,-30,52
-211,-13,-10,-73,-143,-118,33,-79,-96,-3,-2,-36,-102,-1,5,-38,-35,-29,44
-219,-10,-6,-69,-148,-116,32,-73,-102,2,4,-44,-112,8,0,-37,-40,-30,32
-220,-3,-1,-69,-146,-109,29,-66,-104,3,11,-47,-117,14,1,-35,-43,-34,23
-214,7,4,-72,-140,-99,25,-61,-101,3,18,-43,-116,16,7,-30,-44,-40,16
-203,15,6,-74,-131,-90,23,-58,-95,0,24,-35,-113,15,15,-23,-44,-47,13
-189,22,6,-77,-120,-85,26,-59,-87,-4,26,-24,-108,11,23,-15,-42,-52,17
-173,27,4,-82,-108,-83,30,-64,-77,-9,25,-14,-103,10,27,-8,-37,-51,26
-159,31,0,-86,-94,-85,33,-68,-63,-13,24,-8,-97,13,27,-4,-29,-44,39
-143,33,-6,-87,-76,-92,35,-71,-47,-15,20,-6,-88,21,25,-5,-16,-34,54
-126,32,-11,-87,-53,-100,33,-72,-30,-13,14,-4,-78,32,23,-9,-2,-21,70
-106,27,-14,-83,-30,-106,31,-71,-13,-8,7,-1,-67,45,23,-15,11,-11,82
-80,19,-16,-75,-8,-108,32,-68,8,0,-2,4,-51,56,26,-22,19,-5,87
-50,10,-18,-63,13,-106,35,-63,33,9,-13,9,-30,65,29,-25,20,-6,82
-18,3,-20,-51,35,-101,40,-59,58,17,-21,16,-10,72,32,-24,12,-16,70
12,-2,-18,-41,54,-92,43,-54,83,22,-26,21,7,78,32,-17,0,-29,53
37,0,-13,-38,71,-79,44,-51,106,27,-28,24,22,85,29,-8,-11,-41,39
56,6,-6,-43,89,-68,43,-52,125,31,-27,26,33,94,27,1,-18,-49,33
68,16,2,-52,109,-61,39,-52,137,34,-22,29,39,104,26,8,-14,-50,37
76,28,10,-63,127,-57,34,-51,141,40,-16,29,42,114,28,11,-1,-40,50
81,41,16,-74,145,-57,28,-53,142,46,-11,29,47,120,30,9,15,-26,67
86,48,18,-82,161,-61,25,-55,143,51,-8,27,54,122,32,5,28,-12,83
92,52,16,-84,177,-68,23,-56,144,53,-3,19,59,122,33,-1,38,4,94
102,52,12,-82,193,-74,20,-55,146,53,3,8,61,122,35,-7,46,19,100
112,50,9,-77,208,-78,18,-53,147,52,8,-2,58,125,35,-12,49,29,101
121,46,8,-70,220,-79,16,-52,147,51,13,-8,52,130,37,-15,48,36,99
127,44,7,-61,232,-78,15,-51,143,50,19,-10,41,134,42,-16,45,42,96
130,43,5,-51,243,-77,16,-55,135,50,24,-7,30,136,51,-14,38,42,92
129,43,4,-42,251,-76,19,-60,122,52,28,0,17,135,61,-12,25,39,84
123,43,3,-34,257,-79,22,-66,108,55,29,5,5,133,70,-11,10,37,75
116,42,3,-29,261,-84,25,-70,95,59,29,5,-8,132,75,-11,-3,39,67
110,41,4,-26,266,-90,24,-71,82,62,25,3,-21,131,74,-11,-9,43,61
105,38,8,-26,269,-98,21,-67,74,63,18,0,-34,131,70,-12,-11,49,56
99,35,13,-28,270,-105,15,-60,72,57,11,-3,-47,133,62,-10,-9,54,51
96,29,19,-31,271,-112,11,-55,75,47,7,-3,-60,137,55,-7,-10,56,45
96,23,23,-35,271,-120,10,-54,79,34,9,-5,-72,141,52,-3,-15,52,38
95,21,22,-40,271,-128,10,-55,83,24,14,-8,-84,148,49,0,-22,43,32
92,22,17,-47,267,-134,10,-58,84,18,22,-11,-94,157,45,5,-30,29,28
90,24,11,-56,262,-135,6,-64,82,19,28,-15,-102,164,40,12,-37,13,26
89,26,5,-66,255,-132,0,-69,77,24,29,-18,-107,166,34,19,-41,-1,28
85,32,-2,-76,247,-127,-7,-74,72,29,24,-19,-111,167,24,27,-41,-11,32
83,36,-6,-85,240,-119,-17,-75,67,29,16,-20,-117,164,13,33,-39,-15,36
82,36,-7,-92,232,-111,-28,-74,59,27,7,-21,-122,158,3,33,-35,-12,38
81,32,-7,-95,227,-106,-36,-72,50,22,-2,-22,-128,151,-5,29,-33,-5,39
78,28,-7,-94,222,-105,-41,-71,40,17,-12,-21,-133,145,-11,23,-32,4,38
71,20,-7,-89,215,-106,-43,-71,31,13,-20,-17,-135,137,-12,17,-33,11,37
63,10,-6,-80,206,-106,-40,-73,23,10,-26,-10,-136,129,-7,11,-34,17,38
52,1,-3,-71,196,-107,-34,-77,19,8,-30,-3,-135,123,0,6,-36,22,41
38,-2,0,-66,186,-108,-25,-84,17,6,-30,1,-134,119,10,1,-33,29,50
22,-1,5,-76,173,-105,-19,-100,18,5,-25,1,-133,115,23,-5,-26,37,73
8,3,13,-105,160,-97,-16,-128,18,6,-16,-2,-132,112,33,-9,-19,43,109
-2,10,19,-147,146,-84,-15,-167,16,9,-7,-9,-130,114,37,-10,-17,45,150
-8,18,22,-197,134,-71,-15,-212,12,17,2,-18,-131,119,35,-10,-20,43,192
-9,25,24,-248,126,-58,-14,-261,5,26,10,-28,-134,124,30,-7,-27,40,233
-7,30,25,-287,122,-48,-12,-301,-5,35,17,-38,-140,129,25,-4,-34,41,266
-4,35,22,-307,120,-43,-10,-322,-13,42,22,-48,-145,131,21,-5,-36,46,286
-2,37,17,-311,120,-42,-9,-327,-19,46,27,-59,-148,130,22,-10,-28,58,299
-2,38,15,-308,117,-42,-10,-322,-21,45,33,-69,-149,126,26,-15,-12,72,309
-4,39,13,-301,110,-43,-9,-311,-23,40,39,-75,-151,123,29,-20,2,82,313
-8,38,10,-291,99,-43,-9,-297,-22,34,44,-79,-151,121,31,-23,11,85,308
-11,37,8,-281,86,-41,-7,-286,-21,29,47,-77,-149,119,29,-22,12,81,298
-13,37,6,-273,76,-37,-3,-278,-21,26,44,-72,-146,118,23,-18,6,72,284
-12,36,6,-265,69,-33,0,-272,-22,25,38,-64,-143,115,19,-15,-2,62,270
-7,31,5,-257,65,-27,1,-266,-24,26,28,-54,-136,110,18,-14,-4,56,262
-1,26,6,-252,63,-22,-1,-262,-26,29,18,-44,-130,104,16,-13,3,55,265
2,22,7,-252,61,-19,-4,-260,-31,33,10,-36,-128,99,17,-11,19,59,279
1,19,8,-253,60,-20,-7,-257,-38,35,3,-30,-129,92,20,-13,39,68,296
0,17,7,-251,58,-23,-9,-253,-43,32,2,-30,-132,86,24,-17,55,77,308
-4,19,4,-245,55,-25,-9,-247,-44,24,4,-33,-135,81,27,-23,65,84,311
-9,25,0,-234,53,-24,-10,-237,-43,16,6,-36,-135,78,29,-29,66,86,303
-12,32,-2,-221,52,-19,-9,-226,-41,10,9,-38,-131,73,32,-33,61,82,287
-13,37,-3,-209,52,-13,-7,-219,-38,7,12,-36,-124,69,32,-33,53,74,271
-15,42,-2,-203,50,-5,-5,-218,-36,9,11,-31,-114,67,29,-29,44,64,261
-17,47,0,-203,49,4,-4,-222,-35,18,7,-26,-103,67,23,-23,36,55,257
-17,50,1,-207,49,11,-5,-228,-34,28,0,-22,-94,67,19,-19,31,51,258
-13,49,1,-212,50,16,-5,-235,-35,34,-5,-23,-88,65,17,-22,27,54,261
-5,45,1,-214,54,18,-5,-240,-35,35,-8,-26,-85,61,18,-28,24,62,264
6,39,0,-211,60,19,-5,-240,-35,32,-8,-29,-82,55,20,-35,23,69,262
16,33,-1,-205,66,18,-3,-237,-33,23,-6,-28,-78,44,27,-37,22,73,259
23,28,-1,-197,69,15,1,-232,-30,13,-1,-23,-74,34,34,-35,20,71,251
27,25,0,-188,69,14,6,-225,-26,5,3,-16,-71,27,38,-27,14,62,238
26,26,3,-182,64,16,11,-218,-23,3,8,-8,-68,24,40,-17,5,48,223
23,31,5,-175,59,19,18,-212,-25,5,13,-4,-69,23,43,-9,-5,38,207
21,37,6,-169,55,22,26,-208,-32,10,19,-6,-73,23,46,-5,-12,32,195
19,44,6,-164,50,26,32,-204,-40,16,25,-11,-80,27,46,-3,-16,30,187
15,48,4,-160,43,30,37,-202,-44,20,31,-20,-86,32,43,-2,-15,31,186
11,51,0,-158,33,33,39,-200,-44,24,33,-29,-87,35,38,-3,-11,34,188
8,52,-4,-156,22,36,39,-196,-39,26,31,-36,-84,37,32,-3,-4,37,191
7,51,-8,-156,11,38,35,-189,-31,27,27,-38,-78,38,25,0,5,37,194
8,50,-10,-155,1,41,29,-180,-26,26,22,-36,-70,35,19,2,14,37,193
8,52,-13,-156,-5,44,23,-172,-24,21,18,-31,-63,29,17,1,21,37,192
8,57,-15,-159,-7,48,17,-167,-26,12,17,-23,-58,21,18,-1,26,38,192
3,62,-18,-160,-8,50,13,-166,-29,0,18,-16,-56,15,18,-4,28,40,194
-4,65,-18,-158,-8,49,10,-167,-36,-9,20,-11,-56,9,18,-8,29,43,195
-13,64,-15,-154,-6,48,8,-168,-45,-13,21,-8,-56,4,19,-12,27,46,195
-23,57,-6,-150,-6,46,6,-168,-54,-11,20,-5,-56,0,21,-15,28,48,196
-33,46,4,-142,-8,44,4,-166,-61,-7,20,-2,-56,-3,22,-15,31,48,196
-42,35,11,-132,-11,41,4,-160,-64,-6,20,2,-56,-5,26,-12,34,43,193
-49,27,16,-122,-17,39,4,-153,-63,-8,22,9,-56,-7,32,-9,35,36,188
-55,25,17,-113,-23,37,7,-147,-59,-13,26,14,-57,-6,36,-5,35,28,181
-57,27,14,-108,-27,37,10,-145,-53,-17,28,16,-56,-2,36,-4,32,22,176
-56,32,8,-106,-27,38,12,-144,-49,-15,29,11,-54,2,31,-4,28,20,172
-55,39,2,-107,-29,41,10,-144,-49,-8,31,1,-49,6,24,-6,24,20,167
-54,45,-6,-109,-33,47,5,-143,-52,-1,34,-9,-45,8,17,-6,20,21,163
-50,47,-13,-110,-38,53,1,-142,-54,3,39,-15,-40,6,12,-5,17,20,159
-44,47,-18,-109,-41,57,-3,-137,-55,-1,45,-14,-37,1,10,0,15,19,152
-35,45,-22,-106,-42,59,-7,-128,-55,-12,51,-7,-35,-5,11,6,14,15,141
-27,43,-23,-102,-40,59,-10,-118,-53,-26,54,5,-36,-10,14,12,12,9,130
-21,40,-19,-99,-37,58,-13,-108,-52,-38,56,13,-40,-10,12,17,9,3,117
-21,38,-14,-95,-35,57,-16,-97,-51,-46,55,15,-46,-6,6,18,7,-1,104
-27,39,-10,-89,-36,55,-18,-89,-50,-48,50,13,-52,0,0,17,6,-3,95
-37,38,-6,-83,-40,54,-18,-84,-45,-48,45,6,-58,6,-6,15,5,-4,89
-46,36,-2,-78,-42,53,-19,-81,-40,-46,39,-2,-63,11,-10,14,7,-4,88
-51,35,0,-77,-42,51,-21,-82,-34,-43,33,-9,-64,11,-10,10,12,-1,93
-51,33,-3,-79,-38,49,-23,-88,-27,-39,28,-14,-61,10,-5,5,16,1,103
-47,31,-6,-85,-33,47,-27,-94,-21,-35,26,-18,-56,9,3,-3,20,1,113
-38,29,-11,-92,-28,46,-32,-98,-18,-31,25,-18,-51,10,10,-10,22,-2,120
-28,26,-18,-98,-22,44,-36,-103,-17,-29,25,-14,-48,12,16,-15,22,-6,125
-16,24,-23,-101,-17,43,-35,-108,-18,-29,24,-7,-46,14,20,-18,19,-10,127
-5,24,-26,-101,-10,43,-32,-109,-20,-31,25,1,-45,15,20,-15,17,-13,125
6,25,-26,-96,-1,44,-29,-104,-22,-36,28,8,-44,14,17,-8,16,-16,120
15,32,-26,-89,8,45,-24,-98,-23,-41,32,14,-44,14,14,-3,15,-18,112
21,40,-26,-81,17,47,-19,-92,-25,-42,34,15,-44,14,13,-1,11,-22,102
26,48,-27,-74,25,51,-15,-88,-25,-41,34,14,-44,15,14,-3,7,-25,94
29,54,-28,-69,31,55,-12,-87,-24,-40,33,10,-45,18,15,-8,2,-28,89
30,60,-28,-67,35,60,-10,-91,-24,-37,30,7,-47,20,16,-13,-3,-30,87
30,62,-27,-68,36,65,-10,-95,-25,-32,25,5,-48,19,16,-15,-7,-30,88
32,62,-23,-70,37,70,-11,-97,-25,-25,20,1,-47,18,13,-13,-9,-29,87
35,61,-19,-72,39,71,-9,-96,-22,-19,18,-2,-43,20,7,-9,-13,-28,82
37,61,-14,-73,42,69,-7,-91,-18,-14,16,-5,-36,21,-1,-4,-15,-27,76
40,62,-10,-73,45,66,-6,-86,-16,-7,14,-9,-28,21,-9,-1,-16,-23,70
40,65,-8,-73,48,64,-5,-83,-14,-2,14,-12,-19,19,-14,-1,-15,-18,67
38,68,-6,-72,50,61,-5,-79,-15,0,15,-14,-12,13,-15,0,-11,-10,67
35,72,-6,-68,51,61,-7,-73,-19,2,18,-14,-6,4,-11,0,-4,-4,68
32,74,-7,-63,51,64,-12,-65,-24,3,21,-13,-4,-5,-6,2,3,-1,68
31,75,-8,-57,49,67,-18,-57,-28,4,25,-12,-6,-8,-2,4,7,-4,64
31,74,-10,-51,46,70,-23,-49,-29,3,29,-11,-11,-5,2,5,8,-10,57
32,71,-13,-47,44,72,-27,-46,-30,1,29,-13,-20,1,6,1,6,-16,51
34,68,-18,-46,43,70,-27,-48,-30,-1,29,-19,-29,7,9,-8,3,-19,50
36,66,-23,-49,41,67,-23,-55,-31,-5,30,-24,-36,10,12,-16,0,-20,54
39,65,-27,-55,41,62,-16,-65,-31,-9,32,-25,-39,9,15,-19,-3,-22,62
43,64,-31,-59,40,57,-8,-73,-31,-11,32,-24,-38,4,17,-17,-4,-24,68
44,63,-35,-61,37,53,-3,-76,-27,-15,33,-19,-36,0,16,-8,-4,-28,71
43,63,-36,-60,32,54,-3,-72,-23,-22,36,-10,-34,-4,13,6,-4,-36,68
39,62,-35,-56,25,57,-6,-65,-20,-28,36,2,-35,-5,9,20,-4,-46,60
33,62,-33,-51,16,62,-9,-57,-20,-32,32,13,-36,-3,5,28,-6,-51,51
26,63,-32,-47,6,67,-10,-52,-22,-31,27,21,-39,1,2,29,-9,-53,42
20,66,-31,-46,-2,72,-11,-51,-27,-24,19,23,-40,5,1,25,-14,-53,36
17,71,-29,-48,-5,77,-9,-53,-32,-11,11,21,-37,8,1,16,-19,-50,33
15,77,-27,-51,-4,80,-6,-56,-33,0,4,15,-30,10,2,5,-24,-45,32
13,83,-24,-53,0,83,-5,-59,-30,7,2,6,-24,9,5,-5,-27,-39,32
10,86,-20,-52,5,85,-7,-59,-28,8,2,0,-19,5,7,-10,-26,-34,33
9,87,-17,-48,11,85,-8,-57,-24,1,5,-1,-17,1,8,-10,-23,-32,34
8,83,-13,-45,15,84,-7,-58,-21,-8,7,3,-15,-1,6,-8,-21,-30,36
8,77,-8,-43,14,82,-5,-59,-20,-14,5,6,-15,-3,4,-8,-17,-26,41
8,69,-4,-42,13,80,-3,-59,-20,-17,2,7,-13,-3,4,-16,-13,-19,46
9,64,-4,-39,9,80,-3,-57,-17,-18,0,4,-6,-2,8,-29,-8,-10,48
9,61,-8,-31,3,82,-2,-52,-10,-18,1,0,4,-1,12,-42,-5,-4,46
7,60,-12,-19,-4,83,-1,-42,-1,-17,2,-5,15,-1,14,-49,-2,-1,39
7,62,-16,-8,-8,84,0,-31,9,-15,4,-7,24,-2,14,-46,0,-4,30
7,65,-17,0,-8,83,2,-22,18,-14,5,-5,29,-5,11,-30,-2,-13,20
9,66,-15,3,-5,80,5,-17,24,-13,3,2,28,-9,4,-5,-7,-27,10
12,66,-10,-3,3,74,6,-18,25,-12,0,11,23,-14,-4,19,-12,-38,5
17,66,-5,-14,14,69,3,-21,24,-13,-5,21,17,-19,-7,36,-13,-45,8
21,66,-3,-26,27,63,-4,-29,21,-16,-7,31,13,-22,-5,43,-13,-48,15
27,66,-4,-41,40,59,-10,-42,22,-21,-7,39,11,-23,1,43,-11,-48,30
36,68,-7,-62,55,57,-14,-62,26,-26,-5,45,13,-21,11,38,-6,-40,56
48,73,-12,-88,72,55,-17,-89,34,-30,-3,47,15,-18,22,28,3,-28,91
60,78,-16,-116,89,55,-17,-121,42,-32,0,45,15,-11,34,18,8,-16,128
72,82,-18,-145,103,55,-16,-152,46,-31,4,40,13,-3,42,7,10,-8,162
81,83,-20,-167,114,54,-14,-177,45,-29,10,33,11,6,46,-2,13,-2,189
87,83,-21,-178,119,54,-12,-190,41,-24,20,23,9,15,43,-7,14,1,203
91,79,-19,-178,120,57,-12,-192,37,-18,30,13,9,26,33,-7,12,0,203
94,75,-17,-171,118,59,-12,-184,35,-12,37,2,11,36,21,-7,9,-1,193
93,72,-16,-158,115,58,-11,-171,35,-7,39,-8,15,42,12,-10,9,3,179
92,72,-18,-144,113,56,-10,-156,36,-3,35,-16,20,43,5,-16,11,11,166
90,76,-20,-132,113,52,-8,-143,38,1,27,-18,25,42,2,-22,14,19,156
88,80,-24,-125,111,48,-5,-136,39,2,18,-16,30,39,3,-29,16,23,151
85,82,-28,-120,107,47,-2,-134,40,2,12,-12,35,33,9,-35,18,24,151
85,82,-31,-118,104,48,0,-135,41,2,9,-6,39,28,12,-35,21,26,155
88,79,-32,-118,105,51,-1,-138,42,0,9,-1,42,27,13,-31,24,26,161
92,73,-29,-119,107,55,-4,-141,42,-1,12,1,41,29,14,-31,25,27,166
97,66,-23,-121,111,57,-7,-143,39,0,14,1,38,34,14,-33,28,30,170
98,63,-17,-124,115,56,-10,-140,36,1,16,2,35,40,14,-34,32,32,172
95,63,-11,-127,116,54,-13,-136,33,1,17,5,32,42,16,-35,32,29,167
88,66,-7,-128,113,52,-12,-133,32,0,17,9,31,42,18,-33,24,20,156
77,70,-2,-132,106,50,-10,-131,34,1,15,13,31,40,19,-28,14,9,144
65,73,4,-136,99,49,-9,-133,37,1,11,17,30,35,19,-18,2,-2,134
55,75,6,-138,91,51,-8,-137,40,2,9,18,29,30,17,-7,-10,-11,126
48,73,6,-140,86,52,-8,-142,43,4,10,12,29,27,13,1,-19,-14,123
44,70,6,-140,82,52,-10,-144,44,10,12,1,31,25,11,1,-21,-11,122
41,69,3,-137,78,52,-13,-140,45,17,12,-9,35,24,13,-7,-20,-7,120
36,71,-1,-128,72,52,-16,-130,48,23,12,-15,41,26,16,-15,-17,-8,113
30,73,-5,-117,64,52,-18,-117,54,28,12,-16,47,30,20,-19,-15,-14,101
23,75,-7,-106,55,53,-17,-106,59,31,12,-12,50,35,22,-17,-17,-25,89
18,76,-7,-100,46,55,-15,-99,61,31,13,-5,49,39,20,-7,-20,-37,78
15,77,-7,-98,37,56,-10,-97,61,27,15,0,43,40,15,4,-24,-45,72
11,78,-8,-99,32,55,-6,-99,56,23,19,-3,37,37,13,9,-27,-44,72
6,80,-9,-103,29,52,-4,-102,49,19,22,-9,32,30,14,6,-26,-36,75
-2,84,-8,-107,26,46,-2,-103,43,13,24,-12,29,25,17,-2,-23,-27,80
-13,86,-5,-108,20,39,2,-102,40,6,27,-10,28,24,21,-9,-19,-21,82
-24,86,-1,-106,10,35,8,-99,40,0,30,-4,28,28,24,-13,-16,-20,82
-34,87,0,-100,-1,32,18,-95,42,-6,34,4,26,36,25,-12,-16,-24,78
-39,89,-2,-93,-11,29,29,-91,43,-10,38,12,25,45,25,-12,-18,-30,72
-40,92,-4,-85,-20,28,38,-84,44,-10,40,15,24,51,29,-16,-21,-36,62
-40,94,-4,-79,-25,30,44,-78,45,-7,41,15,24,55,35,-19,-25,-43,53
-41,95,-4,-74,-27,33,45,-75,46,-3,42,16,25,55,41,-19,-30,-52,45
-43,94,-3,-69,-25,33,42,-71,48,-2,45,18,27,52,44,-14,-33,-62,38
-46,90,-1,-64,-22,32,37,-68,48,-3,49,18,28,48,42,-5,-34,-69,33
-46,82,1,-57,-17,30,31,-64,48,-5,53,16,29,44,36,3,-31,-69,32
-46,75,0,-47,-11,26,26,-59,48,-6,54,10,31,39,31,5,-24,-62,34
-46,71,-4,-38,-8,21,22,-53,47,-5,52,3,35,35,29,-1,-13,-49,39
-48,71,-8,-33,-9,19,21,-48,45,-3,48,-3,37,33,30,-13,-1,-36,47
-51,71,-8,-33,-15,20,21,-47,43,-1,44,-5,38,35,33,-24,9,-26,56
-57,72,-6,-35,-25,24,22,-48,40,0,40,-1,37,40,32,-29,15,-21,63
-63,73,-5,-37,-33,28,23,-50,38,1,37,7,35,45,27,-24,16,-22,65
-64,74,-7,-37,-39,31,24,-52,35,-1,37,15,32,47,21,-13,12,-28,63
-62,74,-9,-35,-39,33,25,-52,34,-3,38,21,32,45,16,-3,6,-33,57
-58,75,-10,-33,-35,34,26,-51,35,-5,37,24,37,38,14,3,-2,-34,48
-53,78,-9,-32,-30,35,27,-50,38,-10,37,25,43,29,12,6,-9,-31,41
-50,81,-7,-34,-26,36,29,-49,38,-17,39,22,44,21,12,5,-11,-22,38
-51,82,-1,-39,-24,36,29,-50,35,-25,41,17,40,16,12,0,-10,-9,40
-55,81,7,-45,-24,37,28,-52,28,-29,41,15,31,15,12,-4,-9,2,43
-61,79,13,-48,-27,38,25,-54,15,-27,38,14,17,18,11,-5,-9,8,45
-71,76,13,-46,-31,37,22,-55,1,-21,34,13,2,20,11,-6,-12,10,43
-83,75,9,-40,-36,32,21,-56,-8,-15,30,10,-10,22,12,-7,-20,7,36
-94,76,3,-33,-41,26,23,-56,-10,-11,27,7,-18,26,11,-6,-31,0,24
-102,77,-5,-26,-45,18,24,-54,-6,-9,24,4,-21,29,6,-2,-41,-8,13
-108,75,-12,-22,-44,7,23,-52,1,-11,21,1,-20,30,0,4,-43,-12,8
-112,69,-17,-18,-41,-8,21,-50,7,-14,17,2,-19,27,-6,10,-41,-14,8
-117,61,-19,-16,-36,-25,16,-46,9,-16,11,6,-19,24,-9,15,-38,-17,8
-123,50,-17,-13,-26,-43,6,-40,3,-16,4,10,-21,18,-11,14,-35,-18,4
